 gf2800                                                                          
 hist_cutoff = 0.10,   wl_binwidth = 1.0e+03km/s,   wl_max = 1.0e+05,   ionization potential (Ky):   61619.0000    
 line selection based on g*f*exp(-chi/kT), where 5000<T<40000 K
         378        5869  number of levels and lines
       0.00 (3F)4s2 3F 1  743    9
     204.80 (2D)4s 3D  1  744    7
     879.80 (2D)4s 3D  1  745    5
    1332.20 (3F)4s2 3F 1  746    7
    1713.10 (2D)4s 3D  1  747    3
    2216.60 (3F)4s2 3F 1  748    5
    3409.90 (2D)4s 1D  1  749    5
   13521.30 (1D)4s2 1D 1  750    5
   14728.80 3d10 1S    1  751    1
   15609.80 (3P)4s2 3P 1  752    5
   15734.00 (3P)4s2 3P 1  753    3
   16017.30 (3P)4s2 3P 1  754    1
   22102.30 (1G)4s2 1G 1  755    9
   25753.60 3Fsp3P 5D  1 1777    9
   26665.90 3Fsp3P 5D  1 1778    7
   27260.90 3Fsp3P 5G  1 1779   13
   27414.90 3Fsp3P 5D  1 1780    5
   27580.40 3Fsp3P 5G  1 1781   11
   27943.50 3Fsp3P 5D  1 1782    3
   28068.10 3Fsp3P 5G  1 1783    9
   28213.00 3Fsp3P 5D  1 1784    1
   28542.10 3Fsp3P 5F  1 1785   11
   28569.20 (2D)4p 3P  1 1786    5
   28578.00 3Fsp3P 5G  1 1787    7
   29013.20 3Fsp3P 5G  1 1788    5
   29084.50 3Fsp3P 5F  1 1789    9
   29320.80 (2D)4p 3F  1 1790    7
   29481.00 (2D)4p 3F  1 1791    9
   29500.70 (2D)4p 3P  1 1792    3
   29668.90 (2D)4p 3D  1 1793    7
   29832.80 3Fsp3P 5F  1 1794    7
   29888.50 (2D)4p 3D  1 1795    5
   30163.10 3Fsp3P 5F  1 1796    5
   30192.30 (2D)4p 3P  1 1797    1
   30392.00 3Fsp3P 5F  1 1798    3
   30619.40 (2D)4p 3F  1 1799    5
   30912.80 (2D)4p 3D  1 1800    3
   30922.70 3Fsp3P 3G  1 1801   11
   30979.70 3Fsp3P 3G  1 1802    9
   31031.00 (2D)4p 1F  1 1803    7
   31441.60 (2D)4p 1D  1 1804    5
   31786.20 3Fsp3P 3G  1 1805    7
   32973.40 3Fsp3P 3F  1 1806    9
   32982.30 (2D)4p 1P  1 1807    3
   33112.30 3Fsp3P 3F  1 1808    7
   33500.80 3Fsp3P 3D  1 1809    7
   33590.10 3Fsp3P 1G  1 1810    9
   33610.90 3Fsp3P 3D  1 1811    5
   34163.30 3Fsp3P 3F  1 1812    5
   34408.60 3Fsp3P 3D  1 1813    3
   35639.10 3Fsp3P 1F  1 1814    7
   36600.80 3Fsp3P 1D  1 1815    5
   40361.30 3Psp3P 5P  1 1816    7
   40484.20 3Psp3P 5P  1 1817    5
   40769.00 3Psp3P 5P  1 1818    3
   42585.20 1Dsp3P 3F  1 1819    9
   42605.90 2D5s 2+[2+ 1  756    7
   42621.00 1Dsp3P 3D  1 1820    7
   42653.70 1Dsp3P 3D  1 1821    5
   42656.30 1Dsp3P 3D  1 1822    3
   42767.90 1Dsp3P 3F  1 1823    7
   42790.00 2D5s 2+[2+ 1  757    5
   42954.20 1Dsp3P 3F  1 1824    5
  -43017.40 1(1D)3P    1 1776    1
   43089.60 3Fsp1P 3G  1 1825   11
   43258.70 3Fsp1P 3F  1 1826    9
   43464.00 1Dsp3P 3P  1 1827    3
   43654.90 3Fsp1P 3D  1 1828    7
   43933.40 1Dsp3P 3P  1 1829    5
   44093.80 3Psp3P 5D  1 1830    5
   44112.20 2D5s 1+[1+ 1  758    3
   44132.30 3Psp3P 5D  1 1831    3
   44206.10 3Psp3P 5D  1 1832    7
   44262.60 2D5s 1+[1+ 1  759    5
   44314.90 3Fsp1P 3G  1 1833    9
   44415.00 3Psp3P 5D  1 1834    1
   44475.10 3Fsp1P 3D  1 1835    5
   44540.50 3Psp3P 5D  1 1836    9
   44565.00 3Fsp1P 3G  1 1837    7
   45122.40 3Fsp1P 3D  1 1838    3
   45281.10 3Fsp1P 3F  1 1839    7
   45418.80 3Fsp1P 3F  1 1840    5
   46522.90 3Psp3P 3P  1 1841    5
   47030.10 3Psp3P 3D  1 1842    7
   47139.30 3Psp3P 3D  1 1843    5
   47208.10 3Psp3P 3P  1 1844    3
   47328.80 3Psp3P 5S  1 1845    5
   47424.80 3Psp3P 3D  1 1846    3
   47686.60 3Psp3P 3P  1 1847    1
   48466.50 s(4F)5s 5F 1  760   11
   48672.10 (2D)5p 1F  1 1848    7
   48715.60 (2D)5p 3F  1 1849    9
   48735.30 (2D)5p 3P  1 1850    5
   48818.10 3Psp3P 1P  1 1851    3
   48953.30 2D4d 2+[0+ 1  761    3
   49032.90 (2D)5p 1D  1 1852    5
   49086.00 s(4F)5s 5F 1  762    9
   49158.50 2D4d 2+[4+ 1  763   11
   49159.00 2D4d 2+[1+ 1  764    5
   49171.20 2D4d 2+[1+ 1  765    3
   49174.80 2D4d 2+[4+ 1  766    9
   49185.10 3Psp3P 1D  1 1853    5
   49196.20 (2D)5p 3P  1 1854    3
   49271.50 2D4d 2+[2+ 1  767    7
   49313.80 2D4d 2+[3+ 1  768    7
   49327.80 2D4d 2+[2+ 1  769    5
   49328.10 (2D)5p 3D  1 1855    7
   49332.60 2D4d 2+[3+ 1  770    9
   49403.40 3Psp3P 3S  1 1856    3
   49610.30 2D4d 2+[0+ 1  771    1
   49777.60 s(4F)5s 5F 1  772    7
  -50002.70 1(1G)3H    3 1775   33
   50039.20 (2D)5p 3F  1 1857    5
   50138.50 (2D)5p 3P  1 1858    1
   50143.00 (2D)5p 3F  1 1859    7
   50276.30 (1S)4s2 1S 1  773    1
   50346.40 s(4F)5s 5F 1  774    5
   50458.20 (2D)5p 1P  1 1860    3
   50466.10 s(4F)5s 3F 1  775    9
   50536.70 2D4d 1+[0+ 1  776    3
   50677.60 2D4d 1+[3+ 1  777    7
   50689.50 (2D)5p 3D  1 1861    5
   50706.30 2D4d 1+[3+ 1  778    9
   50716.90 2D4d 1+[1+ 1  779    3
   50744.60 s(4F)5s 5F 1  780    3
   50754.10 2D4d 1+[1+ 1  781    5
   50789.30 1Gsp3P 3F  1 1862    9
   50832.00 2D4d 1+[2+ 1  782    7
   50834.40 2D4d 1+[2+ 1  783    5
   50851.20 (2D)5p 3D  1 1863    3
   51124.70 1Gsp3P 3F  1 1864    7
   51306.00 s(4F)5s 3F 1  784    7
   51343.50 1Gsp3P 3F  1 1865    5
   51457.30 2D4d 1+[0+ 1  785    1
   52040.50 s(4F)5s 3F 1  786    5
   52197.40 2D6s 2+[2+ 1  787    7
   52271.70 2D6s 2+[2+ 1  788    5
   53703.90 2D6s 1+[1+ 1  789    3
   53754.00 2D6s 1+[1+ 1  790    5
   54237.10 s(2F)5s 3F 1  791    9
   54251.30 s(2F)5s 1F 1  792    7
   54309.00 2D6p 2+[1+ 1 1866    5
  -54317.00 1(1G)3G    2 1773   16
   54328.90 1Gsp3P 3G  1 1867   11
   54485.90 2D6p 2+[3+ 1 1868    7
   54495.40 2D6p 2+[1+ 1 1869    3
   54544.30 2D6p 2+[3+ 1 1870    9
   54548.30 2D6p 2+[2+ 1 1871    5
   54574.60 2D5d 2+[0+ 1  793    3
   54606.70 2D6p 2+[2+ 1 1872    7
   54659.50 2D5d 2+[1+ 1  794    3
   54659.70 2D5d 2+[4+ 1  795   11
   54667.30 2D5d 2+[1+ 1  796    5
   54667.90 2D5d 2+[4+ 1  797    9
   54698.40 2D4f 2+[0+ 1 1873    1
   54699.10 2D4f 2+[0+ 1 1874    3
   54699.80 2D5d 2+[2+ 1  798    7
   54711.90 2D4f 2+[1+ 1 1875    3
   54713.10 2D4f 2+[1+ 1 1876    5
   54716.20 2D4f 2+[5+ 1 1877   11
   54716.70 2D4f 2+[5+ 1 1878   13
   54728.00 2D4f 2+[2+ 1 1879    7
   54728.70 2D4f 2+[2+ 1 1880    5
   54732.40 2D5d 2+[2+ 1  799    5
   54741.30 2D4f 2+[3+ 1 1881    7
   54741.60 2D4f 2+[3+ 1 1882    9
   54742.20 2D4f 2+[4+ 1 1883    9
   54742.50 2D4f 2+[4+ 1 1884   11
   54761.30 2D5d 2+[3+ 1  800    9
   54772.10 2D5d 2+[3+ 1  801    7
   55015.10 2D5d 2+[0+ 1  802    1
   55556.90 s(4F)5p 5D 1 1885    9
   55576.80 s(2F)5s 3F 1  803    7
   55696.50 s(4F)5p 5G 1 1886   13
   55751.80 s(4F)5p 5F 1 1887   11
   55881.10 2D6p 1+[0+ 1 1888    3
   55920.50 s(2F)5s 3F 1  804    5
  -55923.10 D(2D)3D    2 1772    4
   55942.70 2D6p 1+[1+ 1 1889    5
   55971.30 2D7s 2+[2+ 1  805    7
   55979.90 2D6p 1+[2+ 1 1890    7
   56021.90 2D7s 2+[2+ 1  806    5
   56053.10 2D6p 1+[2+ 1 1891    5
   56107.90 2D5d 1+[0+ 1  807    3
  -56174.60 2D5d 1+[3+ 2  742   16
   56188.70 2D5d 1+[1+ 1  808    3
   56201.30 2D5d 1+[1+ 1  809    5
   56214.40 2D4f 1+[1+ 1 1892    5
   56215.50 2D4f 1+[1+ 1 1893    3
   56225.30 2D4f 1+[4+ 1 1894   11
   56227.10 2D4f 1+[4+ 1 1895    9
   56238.70 2D4f 1+[2+ 1 1896    7
   56239.30 2D4f 1+[2+ 1 1897    5
   56243.80 s(4F)5p 5G 1 1898   11
   56249.60 2D4f 1+[3+ 1 1899    7
   56250.90 2D4f 1+[3+ 1 1900    9
   56262.00 s(4F)5p 5D 1 1901    7
  -56269.20 2D5d 1+[2+ 2  741   12
   56339.10 s(4F)5p 5F 1 1902    9
   56400.80 2D5d 1+[0+ 1  810    1
   56525.40 1Dsp1P 1F  1 1903    7
   56561.70 1Dsp1P 1D  1 1904    5
   56624.60 s4Fd 4+[6+ 1  811   13
   56710.80 s4Fd 4+[2+ 1  812    5
   56766.50 s4Fd 4+[4+ 1  813    9
   56801.60 s4Fd 4+[5+ 1  814   11
   56821.50 s4Fd 4+[2+ 1  815    7
   56857.90 s4Fd 4+[3+ 1  816    9
   56885.20 s4Fd 4+[6+ 1  817   15
  -56896.20 E(2D)1P    2 1771   10
  -56902.30 2D6d 2+[1+ 2  740    8
  -56928.70 2D6d 2+[2+ 2  739   12
   56934.90 s(4F)5p 5G 1 1905    9
  -56939.00 2D6d 2+[3+ 2  738   16
  -56939.10 2D6d 2+[4+ 2  737   20
   56940.50 s(4F)5p 5D 1 1906    5
   56954.10 s4Fd 4+[5+ 1  818   13
   56973.70 s4Fd 4+[4+ 1  819   11
   56983.80 s(4F)5p 5F 1 1907    7
   57103.90 s4Fd 4+[3+ 1  820    7
  -57177.70 2D6d 2+[0+ 2  736    4
   57205.10 2D5f 2+[5+ 1 1908   11
   57205.40 2D5f 2+[5+ 1 1909   13
  -57207.30 d(2D)1D    2 1770   12
   57213.10 2D5f 2+[4+ 1 1910    9
   57213.40 2D5f 2+[3+ 1 1911    9
   57213.70 2D5f 2+[4+ 1 1912   11
   57219.60 2D5g 2+[1+ 1  821    3
   57219.60 2D5g 2+[1+ 1  822    5
   57222.70 2D5g 2+[6+ 1  823   13
   57222.70 2D5g 2+[6+ 1  824   15
   57223.40 2D5g 2+[2+ 2  825   12
   57227.20 2D5g 2+[3+ 1  826    7
   57227.20 2D5g 2+[3+ 1  827    9
   57228.80 2D5g 2+[5+ 1  828   13
   57228.80 2D5g 2+[5+ 1  829   11
   57229.60 2D5g 2+[4+ 1  830   11
   57229.60 2D5g 2+[4+ 1  831    9
   57251.90 s(4F)5p 3G 1 1913   11
   57481.90 2D7s 1+[1+ 1  832    3
   57504.20 s(4F)5p 3F 1 1914    9
   57505.00 2D7s 1+[1+ 1  833    5
   57517.00 s(4F)5p 5D 1 1915    3
   57527.30 s(4F)5p 5F 1 1916    5
   57547.70 s(4F)5p 5G 1 1917    7
   57552.10 3Psp1P 3P  1 1918    3
   57677.60 s4Fd 3+[5+ 1  834   11
   57700.60 s4Fd 3+[1+ 1  835    5
  -57712.20 2D8s 2+[2+ 2  735   12
   57743.50 s4Fd 3+[2+ 1  836    7
   57762.00 s4Fd 3+[5+ 1  837   13
   57767.50 s4Fd 3+[1+ 1  838    3
   57789.50 s4Fd 3+[4+ 1  839    9
   57810.40 s4Fd 3+[3+ 1  840    9
   57829.30 s4Fd 3+[4+ 1  841   11
  -57831.70 E(2D)3D   11 1769   51
   57852.90 s(4F)5p 5D 1 1919    1
   57945.70 s(4F)5p 5G 1 1920    5
   57993.00 s(4F)5p 5F 1 1921    3
   58005.30 s4Fd 3+[2+ 1  842    5
   58039.50 s4Fd 3+[3+ 1  843    7
  -58134.80 d(2D)3D   13 1768   65
   58135.40 s(4F)5p 3G 1 1922    9
  -58258.40 2D6d 1+[0+ 2  734    4
  -58289.20 2D7d 2+[4+ 2  733   20
  -58291.20 2D7d 2+[1+ 2  732    8
  -58304.90 2D7d 2+[2+ 2  731   12
  -58311.60 2D7d 2+[3+ 2  730   16
  -58407.60 2D6d 1+[3+ 2  729   16
  -58417.80 2D6d 1+[1+ 2  728    8
  -58434.20 F(2D)1P    2 1767   10
  -58446.30 2D6d 1+[2+ 2  727   12
   58448.80 s4Fd 2+[0+ 1  844    1
   58518.10 s4Fd 2+[4+ 1  845    9
   58520.90 s4Fd 2+[4+ 1  846   11
   58525.40 s4Fd 2+[0+ 1  847    3
   58535.70 s(4F)5p 3F 1 1923    7
  -58543.30 2D6g 2+[1+ 2  726    8
  -58544.60 2D6g 2+[6+ 1  725   13
  -58544.80 2D6g 2+[2+ 2  724   12
  -58546.40 2D6g 2+[3+ 2  723   16
  -58547.00 2D6g 2+[5+ 2  722   24
  -58547.30 2D6g 2+[4+ 2  721   20
   58579.80 s4Fd 2+[3+ 1  848    9
  -58583.80 2D7d 2+[0+ 2  720    4
   58588.10 s4Fd 2+[2+ 1  849    7
   58629.50 s4Fd 2+[3+ 1  850    7
   58629.90 s4Fd 2+[2+ 1  851    5
  -58642.80 e(2D)1F    5 1766   33
  -58684.70 s4Fd 2+[1+ 2  719    8
   58713.90 2D5f 1+[4+ 1 1924   11
   58714.30 2D5f 1+[4+ 1 1925    9
   58728.50 2D5g 1+[2+ 1  852    5
   58728.60 2D5g 1+[2+ 1  853    7
   58730.70 2D5g 1+[5+ 1  854   11
   58730.70 2D5g 1+[5+ 1  855   13
   58734.60 2D5g 1+[3+ 1  856    9
   58734.60 2D5g 1+[3+ 1  857    7
   58736.60 2D5g 1+[4+ 1  858   11
   58736.70 2D5g 1+[4+ 1  859    9
  -58762.40 2D9s 1+[1+ 1  718    5
  -58807.50 2D9s 2+[2+ 1  717    7
   58866.60 1Dsp1P 1P  1 1926    3
   58896.20 3Psp1P 3D  1 1927    7
  -58924.00 s(2D)1F    4 1765   46
   59039.60 s4Fd 1+[3+ 1  860    9
  -59043.60 e(2D)3G   15 1764  107
   59045.00 3Psp1P 3D  1 1928    5
  -59062.90 s4Fd 1+[2+ 2  716   12
   59077.80 3Psp1P 3D  1 1929    3
  -59109.60 2D8d 2+[0+ 1  715    3
   59118.00 s4Fd 1+[1+ 1  861    5
  -59124.30 2D8d 2+[1+ 2  714    8
  -59125.40 Z(2D)1G    1  713    9
  -59136.40 2D8d 2+[2+ 2  712   12
  -59137.50 2D8d 2+[3+ 1  711    7
  -59152.20 G(2D)1F    1 1763    7
  -59152.80 f(2D)1D    3 1762   19
   59188.70 s4Fd 1+[3+ 1  862    7
  -59199.30 2D8s 1+[1+ 2  710    8
  -59206.70 s(2D)3F   16 1761  174
   59221.20 s4Fd 1+[1+ 1  863    3
  -59330.40 s4Fd 1+[0+ 2  709    4
  -59353.40 2D7g 2+[1+ 2  708    8
  -59354.40 2D7g 2+[2+ 1  707    5
  -59407.30 F(2D)3F    9 1760   45
  -59637.50 G(2D)1D    1  706    5
  -59651.30 2D9d 2+[0+ 1  705    3
  -59661.20 2D9d 2+[1+ 1  704    3
  -59665.70 a(2D)1G    4  703   22
  -59683.80 g(2D)1F    4 1759   32
  -59707.10 H(2D)1F    3 1758   15
  -59731.90 o(2D)1G    4  702   38
  -59732.70 t(2D)1F    4 1757   46
  -59762.30 Y(2D)3G    8  700   40
   59862.60 s(4F)6s 5F 1  864   11
  -59864.90 n(2D)3F    8  699   82
  -59908.00 f(2D)3D   16 1756  112
  -59971.00 2(3F)3D    7 1755   33
  -60005.60 G(2D)3D   11 1754   59
  -60015.40 t(2D)3F   16 1753  174
  -60045.30 h(2D)1F    4 1752   32
  -60051.60 n(2D)1D    1  697    5
  -60065.30 I(2D)1F    3 1751   15
  -60067.10 H(2D)1D    1  696    5
  -60166.90 o(2D)3F   13  695  129
  -60256.90 p(2D)1G    4  694   38
  -60257.70 u(2D)1F    4 1750   46
  -60257.90 v(2D)1G    4  693   54
  -60293.50 F(2D)3D    2  692    8
  -60314.20 J(2D)1F    3 1748   15
  -60320.70 Z(2D)3F   10  691   60
  -60372.20 I(2D)1D    1  690    5
  -60437.20 g(2D)3D   16 1747  108
  -60539.50 p(2D)3F   16  689  142
  -60540.30 u(2D)3F   16 1746  174
  -60540.50 v(2D)3L   16  688  206
  -60616.80 q(2D)1G    4  687   38
  -60617.60 v(2D)1F    4 1744   46
  -60617.90 w(2D)1G    4  686   54
  -60631.20 G(2D)3D    3  685   15
  -60662.40 a(2D)3P   12  684   72
  -60702.50 H(2D)3D    9 1742   45
  -60798.80 h(2D)3D   16 1741  108
  -60879.50 K(2D)1F    4 1740   18
  -60899.40 q(2D)3F   16  682  142
  -60900.20 v(2D)3F   16 1739  174
  -60900.50 w(2D)3L   16  681  206
  -60959.30 2(3F)1F    3 1737   21
  -61058.10 I(2D)3D    9 1736   45
  -61068.80 H(2D)3D    3  680   15
  -61120.10 2(3F)3G    4 1735   34
  -61237.30 2(3F)3F    4 1734   26
  -61313.30 J(2D)3D    9 1733   45
  -61314.70 3(3F)5F    4  678   24
  -61359.90 1(3P)3S    1 1732    3
  -61371.90 I(2D)3D    3  677   15
  -61439.20 K(2D)3D    8 1731   42
  703 1756 -1.123 -99781.   
 1767  708 -1.918 -99763.   
  806 1771 -0.079 -99737.   
 1767  695 -0.487 -99570.   
 1767  702 -1.573 -99513.   
 1928  699 -2.459 -99319.   
  860 1741 -3.566 -99315.   
  739 1920 -4.283 -99293.   
 1764  702 -0.768 -98920.   
 1766  707 -1.284 -98668.   
 1766  695 -0.330 -98574.   
 1764  707 -1.530 -98562.   
 1764  695  0.036 -98404.   
  833 1769 -0.051 -98382.   
 1766  702 -0.181 -98367.   
  736 1767 -0.794 -98036.   
 1760  695 -1.077 -98011.   
 1752  678 -5.066 -97597.   
  719 1760 -2.095 -97545.   
 1915  726 -3.397 -97409.   
  802 1772 -1.464 -96922.   
  832 1767 -0.655 -96580.   
  710 1739 -6.729 -96491.   
 1769  708 -2.240 -96437.   
 1913  733 -2.967 -96427.   
 1769  707 -2.144 -96346.   
 1914  723 -3.008 -95925.   
 1914  721 -2.462 -95837.   
 1769  731 -1.303 -95601.   
  710 1755 -1.397 -95516.   
 1769  730 -1.250 -95488.   
  734 1755 -0.926 -95060.   
  805 1771 -2.006 -94944.   
 1755  682 -3.119 -94924.   
  850 1742 -1.413 -94871.   
  850 1759 -3.236 -94720.   
  850 1747 -2.865 -94703.   
 1913  730 -2.463 -94246.   
  851 1742 -2.545 -94094.   
 1770  720 -1.804 -93696.   
 1768  700 -1.242 -93639.   
  692 1732 -2.464 -93398.   
 1770  733 -2.578 -93375.   
  863 1755 -1.818 -93109.   
 1910  733 -2.810 -92948.   
 1912  733 -1.732 -92900.   
 1911  733 -2.394 -92880.   
 1756  687 -1.333 -92321.   
 1909  733 -1.693 -92293.   
 1754  687 -2.251 -92223.   
 1754  682 -1.167 -92213.   
 1762  682 -0.893 -92117.   
 1756  682 -0.610 -92054.   
 1762  687 -0.752 -92028.   
 1923  685 -1.764 -91579.   
  740 1921 -4.277 -91564.   
  710 1748 -2.324 -91300.   
  849 1742 -2.742 -91289.   
  848 1758 -4.111 -91164.   
 1770  732 -2.081 -91143.   
 1911  730 -1.864 -91120.   
  843 1756 -3.001 -90962.   
 1910  730 -2.339 -90920.   
 1923  706 -1.772 -90733.   
 1770  731 -1.614 -90479.   
 1908  730 -1.961 -90265.   
  827 1764 -2.370 -90255.   
  856 1760 -2.822 -90192.   
  828 1766 -4.722 -90135.   
  829 1766 -3.131 -90135.   
  682 1734 -3.741 -90001.   
  825 1764 -2.345 -89805.   
  830 1764 -2.223 -89749.   
  826 1766 -2.292 -89740.   
  857 1764 -2.310 -89697.   
  831 1766 -2.380 -89694.   
  858 1764 -2.216 -89665.   
  859 1764 -2.396 -89664.   
 1770  730 -1.657 -89659.   
  823 1766 -2.199 -89645.   
  855 1764 -2.196 -89641.   
  822 1766 -2.346 -89628.   
  831 1764 -2.780 -89617.   
  828 1764 -2.220 -89615.   
  824 1764 -2.196 -89615.   
  854 1764 -2.199 -89613.   
  821 1764 -2.276 -89592.   
  829 1764 -2.290 -89556.   
  853 1764 -2.248 -89539.   
  852 1764 -2.218 -89536.   
  856 1764 -2.529 -89491.   
  825 1766 -2.910 -89437.   
  843 1754 -2.284 -89365.   
 1766  859 -3.340 -89352.   
  836 1735 -3.354 -89248.   
 1766  857 -3.862 -89181.   
 1766  856 -3.352 -89180.   
  831 1767 -3.875 -89119.   
  857 1760 -3.112 -89017.   
  827 1767 -2.942 -88931.   
 1923  703 -1.649 -88756.   
  825 1767 -3.490 -88633.   
 1923  684 -2.123 -88527.   
  849 1758 -3.131 -88410.   
  848 1742 -3.648 -88261.   
 1767  705 -2.783 -88139.   
  721 1742 -3.837 -88012.   
  723 1742 -4.194 -87938.   
  697 1747 -2.534 -87894.   
  723 1747 -2.613 -87876.   
  725 1759 -2.530 -87871.   
  699 1747 -2.531 -87852.   
  722 1747 -2.759 -87850.   
  720 1741 -0.711 -87805.   
 1904  735 -0.939 -87727.   
 1758  695 -3.182 -87497.   
 1767  704 -2.143 -87381.   
  842 1756 -3.730 -86851.   
 1769  842 -2.090 -86781.   
 1927  697 -3.547 -86528.   
 1735  678 -2.693 -86508.   
 1927  699 -1.415 -86343.   
  845 1758 -3.863 -86310.   
 1767  709 -1.810 -86238.   
  692 1734 -2.177 -86135.   
 1769  843 -1.869 -85907.   
 1927  680 -1.664 -85640.   
  711 1733 -2.967 -85570.   
 1927  696 -2.663 -85382.   
  806 1770 -1.059 -85185.   
  713 1748 -1.855 -85149.   
  712 1748 -2.436 -85093.   
 1772  825 -4.513 -84949.   
  713 1733 -2.991 -84859.   
  711 1748 -1.989 -84714.   
  691 1733 -1.875 -84646.   
  861 1748 -1.175 -84615.   
  714 1733 -2.110 -84573.   
  720 1751 -2.096 -84387.   
  712 1733 -2.134 -84384.   
 1926  697 -2.435 -84365.   
  716 1733 -2.626 -84318.   
 1770  734 -3.192 -84266.   
  699 1735 -2.406 -83927.   
 1734  678 -2.702 -83839.   
  845 1742 -3.519 -83704.   
 1928  682 -1.690 -83653.   
  715 1733 -1.900 -83571.   
  738 1922 -2.283 -83499.   
 1903  735 -1.094 -83478.   
 1926  696 -1.337 -83276.   
 1754  690 -3.278 -82974.   
 1770  729 -2.697 -82789.   
 1918  718 -1.710 -82598.   
 1929  692 -2.097 -82503.   
 1754  677 -2.212 -82492.   
 1756  690 -3.575 -82429.   
 1756  677 -3.289 -82200.   
  700 1737 -2.434 -82185.   
  739 1922 -2.844 -82158.   
 1763  690 -1.829 -81941.   
 1922  702 -2.540 -81919.   
  805 1770 -1.871 -81663.   
  851 1766 -2.492 -81562.   
 1887  737 -1.018 -81394.   
  832 1768 -0.663 -81323.   
 1760  705 -2.336 -81124.   
 1916  718 -2.169 -80940.   
  727 1759 -3.335 -80937.   
 1771  842 -3.378 -80807.   
  737 1922 -3.800 -80801.   
  820 1766 -3.457 -80798.   
  717 1741 -3.231 -80701.   
  820 1764 -2.396 -80649.   
  806 1769 -0.255 -80515.   
 1915  718 -2.251 -80271.   
  833 1768 -0.662 -80164.   
 1770  727 -2.741 -79865.   
 1928  692 -2.540 -79828.   
  717 1736 -1.625 -79589.   
 1769  706 -2.332 -79495.   
  849 1764 -1.872 -79459.   
  820 1760 -1.725 -79451.   
  729 1758 -3.044 -79072.   
 1760  685 -1.581 -79021.   
 1771  733 -0.834 -78999.   
 1923  700 -2.217 -78992.   
  727 1758 -2.953 -78499.   
 1766  685 -2.479 -78285.   
 1769  726 -2.080 -78123.   
 1769  700 -1.142 -78101.   
 1769  724 -1.657 -78029.   
 1769  723 -2.479 -77935.   
 1886  737 -1.817 -77885.   
 1764  685 -3.156 -77870.   
 1767  706 -1.886 -77731.   
  692 1736 -1.353 -77624.   
 1771  730 -1.128 -77599.   
  736 1755 -1.348 -77527.   
 1769  703 -1.735 -77521.   
 1929  690 -1.999 -77231.   
 1913  723 -2.673 -77228.   
 1913  722 -0.806 -77190.   
 1913  721 -1.513 -77171.   
 1769  709 -2.437 -77113.   
 1760  684 -0.893 -77014.   
 1764  706 -3.048 -76746.   
 1914  717 -2.395 -76709.   
  718 1751 -1.377 -76665.   
 1916  719 -1.440 -76579.   
 1907  733 -3.610 -76550.   
 1907  732 -1.967 -76540.   
 1767  703 -1.384 -76276.   
 1764  705 -3.430 -76043.   
 1766  684 -1.856 -76043.   
  719 1764 -2.350 -76016.   
 1915  719 -0.883 -75980.   
 1907  731 -1.509 -75929.   
  830 1761  0.212 -75823.   
  831 1765  0.143 -75823.   
  859 1761  0.218 -75803.   
  858 1761  0.218 -75797.   
  828 1761  0.213 -75794.   
  829 1765  0.215 -75794.   
  826 1761  0.217 -75712.   
  827 1761  0.218 -75712.   
  856 1761  0.217 -75701.   
  857 1761  0.189 -75701.   
  825 1761  0.218 -75543.   
  854 1761  0.218 -75535.   
  855 1761  0.218 -75535.   
  823 1765  0.218 -75525.   
  824 1761  0.214 -75525.   
  853 1761  0.202 -75437.   
  852 1765  0.218 -75435.   
  821 1761  0.218 -75380.   
  822 1761  0.218 -75380.   
 1770  723 -0.520 -75324.   
 1770  721 -0.501 -75272.   
 1907  730 -1.311 -75234.   
 1912  725  0.021 -75116.   
 1910  723 -0.588 -74981.   
 1911  722 -0.010 -74964.   
  721 1746 -0.787 -74952.   
  722 1750 -0.912 -74942.   
  722 1746 -0.843 -74940.   
 1910  721 -0.047 -74927.   
 1768  699 -0.241 -74923.   
 1761  688 -0.666 -74922.   
 1765  693 -0.676 -74922.   
  723 1746 -0.575 -74909.   
  724 1746 -0.575 -74842.   
  725 1750 -0.576 -74835.   
  699 1746 -0.580 -74835.   
 1768  721 -1.416 -74811.   
 1768  723 -0.898 -74756.   
 1768  724 -1.062 -74710.   
 1925  699  0.069 -74706.   
 1924  699  0.068 -74688.   
 1909  699  0.021 -74654.   
 1768  697 -1.161 -74595.   
 1768  726 -1.053 -74541.   
 1909  722 -0.988 -74518.   
 1908  722 -0.086 -74499.   
 1908  721 -0.792 -74481.   
 1769  704 -2.741 -74363.   
 1769  733 -1.261 -74249.   
 1762  691 -2.331 -74196.   
 1770  726 -1.032 -74177.   
 1770  724 -0.461 -74093.   
 1906  732 -1.477 -74084.   
 1905  733 -1.033 -73848.   
  735 1929 -2.956 -73792.   
  833 1735 -2.534 -73582.   
 1769  694 -3.922 -73540.   
  709 1737 -2.404 -73515.   
 1770  848 -3.358 -73474.   
  742 1916 -3.512 -73426.   
  819 1764 -0.091 -73258.   
  730 1758 -2.005 -73196.   
  713 1740 -2.175 -73170.   
  711 1740 -2.236 -73099.   
 1906  731 -1.657 -73035.   
 1768  848 -3.723 -73035.   
 1906  730 -1.978 -72969.   
  730 1747 -0.904 -72847.   
  691 1731 -2.187 -72846.   
  730 1759 -1.053 -72742.   
  731 1759 -1.142 -72652.   
 1905  730 -1.656 -72562.   
  731 1742 -1.732 -72299.   
  714 1740 -2.627 -72260.   
  731 1747 -0.896 -72202.   
  700 1742 -1.735 -72159.   
  819 1760 -1.317 -72000.   
  700 1747 -0.631 -71994.   
  733 1759 -1.045 -71794.   
  732 1759 -1.354 -71791.   
  733 1747 -0.963 -71722.   
  732 1747 -0.816 -71713.   
  733 1742 -1.984 -71686.   
  727 1760 -0.795 -71528.   
  730 1742 -2.106 -71417.   
  732 1742 -1.966 -71289.   
  738 1764 -0.096 -71178.   
  739 1766 -0.407 -71139.   
  738 1766 -0.991 -71101.   
  727 1764 -0.184 -71092.   
  727 1766 -0.725 -70990.   
  731 1758 -2.178 -70925.   
  738 1767 -1.535 -70826.   
  847 1760 -2.579 -70758.   
  850 1736 -1.813 -70637.   
  850 1741 -3.159 -70563.   
  728 1760 -1.009 -70481.   
  720 1747 -0.998 -70475.   
  720 1759 -1.348 -70404.   
  738 1760 -1.421 -70288.   
 1885  737 -1.298 -70248.   
  739 1764 -0.302 -70159.   
  728 1764 -0.136 -70053.   
  729 1760 -1.235 -69866.   
  728 1766 -1.025 -69862.   
  740 1764 -0.323 -69757.   
  729 1764 -0.058 -69723.   
 1772  832 -0.527 -69649.   
  737 1766 -0.455 -69433.   
  740 1766 -0.535 -69422.   
 1906  734 -2.253 -69356.   
  729 1766 -1.491 -69257.   
  820 1761 -2.592 -69246.   
  737 1764 -1.174 -69089.   
  710 1754 -0.936 -69063.   
  740 1767 -1.017 -69048.   
 1767  700 -1.133 -68951.   
 1772  736 -1.816 -68911.   
 1899  735 -2.411 -68862.   
  737 1767 -2.195 -68793.   
 1772  833 -1.126 -68545.   
  851 1751 -2.288 -68481.   
 1907  727 -2.489 -68403.   
  734 1764 -0.105 -68327.   
  849 1761 -4.144 -68144.   
  710 1756 -1.827 -68143.   
 1915  709 -1.575 -68127.   
 1927  677 -2.041 -67830.   
  863 1754 -1.602 -67796.   
  734 1760 -1.310 -67746.   
  742 1755 -2.042 -67739.   
  736 1764 -0.296 -67612.   
 1906  728 -2.380 -67364.   
  816 1764 -3.214 -67254.   
 1771  720 -2.212 -66896.   
  721 1736 -4.363 -66763.   
  721 1741 -3.252 -66697.   
  722 1752 -3.349 -66691.   
  723 1741 -3.053 -66690.   
  721 1752 -3.272 -66687.   
  722 1741 -3.171 -66685.   
  725 1752 -2.997 -66662.   
  699 1741 -2.975 -66653.   
  724 1741 -3.227 -66643.   
  726 1741 -3.114 -66635.   
  691 1734 -2.740 -66594.   
  838 1754 -2.533 -66475.   
 1906  727 -1.705 -66435.   
 1926  690 -1.793 -66399.   
 1735  677 -3.448 -66366.   
  717 1733 -2.586 -66327.   
  690 1735 -2.957 -66271.   
  717 1748 -3.415 -66199.   
  709 1742 -2.387 -66125.   
 1771  719 -2.778 -66109.   
  740 1760 -1.886 -65966.   
 1760  694 -2.682 -65844.   
 1771  724 -2.826 -65749.   
 1771  723 -2.316 -65682.   
 1771  721 -2.697 -65643.   
 1771  732 -1.732 -65584.   
 1767  689 -1.164 -65387.   
 1923  696 -2.243 -65279.   
 1764  694 -1.459 -65113.   
 1766  689 -0.887 -64956.   
  735 1754 -1.030 -64872.   
 1764  689 -0.627 -64866.   
 1766  694 -0.870 -64850.   
 1907  719 -2.150 -64385.   
  718 1748 -1.502 -64282.   
 1771  848 -2.026 -64272.   
  814 1760 -3.290 -64061.   
 1769  689 -2.349 -63968.   
 1770  718 -3.362 -63804.   
 1917  716 -1.880 -63671.   
  820 1768 -2.672 -63596.   
 1918  714 -1.671 -63564.   
 1769  685 -2.032 -63563.   
 1769  846 -2.110 -63327.   
 1916  716 -1.195 -62853.   
 1918  712 -1.637 -62848.   
  734 1758 -1.721 -62826.   
 1906  719 -1.450 -62638.   
  738 1923 -1.597 -62578.   
  861 1754 -1.944 -62444.   
  720 1740 -2.537 -62353.   
 1771  850 -2.591 -62282.   
 1771  851 -2.113 -62267.   
 1916  711 -3.023 -62085.   
 1770  717 -3.913 -62021.   
 1905  722 -3.835 -62012.   
 1905  721 -3.724 -62002.   
 1771  734 -2.359 -61946.   
 1888  736 -1.699 -61855.   
  739 1923 -1.733 -61821.   
 1914  691 -1.697 -61778.   
  833 1734 -1.700 -61566.   
  812 1766 -2.875 -61551.   
  812 1764 -1.963 -61491.   
  740 1923 -2.275 -61251.   
  833 1756 -2.243 -61202.   
  737 1923 -1.521 -61050.   
 1769  848 -2.524 -61049.   
 1918  710 -2.022 -60881.   
  843 1742 -2.736 -60820.   
  832 1734 -2.020 -60702.   
  833 1763 -2.634 -60695.   
 1891  735 -2.533 -60654.   
 1771  728 -1.998 -60352.   
  734 1752 -3.205 -60133.   
  851 1748 -2.814 -59877.   
  842 1758 -3.410 -59823.   
 1769  847 -2.905 -59786.   
  850 1733 -1.424 -59719.   
 1772  735 -2.288 -59634.   
 1916  710 -2.226 -59606.   
 1771  727 -2.402 -59535.   
 1771  844 -3.422 -59484.   
 1769  719 -2.781 -59391.   
 1769  696 -2.847 -59253.   
 1915  710 -1.998 -59242.   
  805 1755 -1.331 -59226.   
  721 1739 -1.242 -59029.   
  721 1744 -1.443 -59028.   
  722 1739 -1.298 -59021.   
  722 1744 -1.367 -59021.   
 1765  686 -1.236 -59001.   
 1761  681 -1.226 -59001.   
  723 1739 -1.031 -59000.   
  724 1739 -1.032 -58955.   
  725 1744 -1.032 -58950.   
  699 1739 -1.036 -58950.   
  697 1744 -1.032 -58934.   
  726 1739 -1.033 -58911.   
 1904  720 -2.294 -58780.   
 1767  699 -4.244 -58685.   
 1923  682 -3.952 -58654.   
 1923  687 -3.617 -58645.   
 1771  859 -3.344 -58381.   
  849 1733 -2.618 -58280.   
 1767  696 -2.436 -58267.   
 1773  806 -3.330 -58194.   
  706 1732 -3.039 -58041.   
  692 1731 -2.093 -57989.   
 1904  732 -2.559 -57847.   
  730 1751 -2.365 -57817.   
  849 1748 -3.713 -57803.   
  730 1741 -1.253 -57669.   
 1769  849 -2.995 -57626.   
  730 1752 -1.399 -57604.   
  731 1752 -1.502 -57552.   
 1904  731 -2.475 -57497.   
  718 1740 -1.981 -57365.   
 1890  735 -1.986 -57355.   
  731 1736 -1.979 -57314.   
  731 1741 -1.199 -57265.   
  700 1736 -1.893 -57227.   
  733 1751 -2.247 -57130.   
  700 1741 -0.949 -57112.   
  802 1771 -0.211 -57029.   
  732 1752 -1.616 -56981.   
  733 1752 -1.308 -56981.   
  732 1741 -1.054 -56949.   
  733 1741 -1.187 -56938.   
  733 1736 -2.048 -56928.   
  732 1736 -1.989 -56816.   
 1903  733 -2.186 -56661.   
 1903  732 -3.201 -56656.   
  833 1754 -1.372 -56599.   
 1926  691 -1.331 -56439.   
  732 1751 -2.937 -56354.   
  738 1924 -3.225 -56351.   
 1903  731 -2.448 -56320.   
  738 1925 -3.162 -56286.   
 1907  718 -2.530 -56208.   
 1889  735 -2.000 -56155.   
  720 1752 -1.436 -56104.   
  810 1769 -0.614 -55965.   
  720 1736 -2.068 -55944.   
 1903  730 -2.374 -55937.   
  808 1769 -1.210 -55895.   
  741 1769 -1.294 -55832.   
 1918  708 -3.241 -55498.   
  720 1754 -1.713 -55114.   
 1904  734 -2.972 -54924.   
 1907  717 -1.786 -54820.   
  719 1754 -2.748 -54749.   
  719 1756 -2.799 -54674.   
  710 1737 -3.002 -54578.   
  713 1734 -4.529 -54471.   
 1923  690 -2.503 -54434.   
 1904  729 -1.666 -54293.   
 1888  735 -2.955 -54276.   
 1914  695 -3.778 -53987.   
  809 1769 -1.117 -53947.   
 1866  742 -3.572 -53845.   
 1769  856 -4.169 -53783.   
 1904  728 -2.491 -53667.   
 1906  717 -1.931 -53549.   
  850 1731 -2.382 -53397.   
 1905  717 -1.844 -53388.   
  709 1736 -2.312 -53351.   
  851 1740 -3.189 -53310.   
  712 1737 -3.916 -53246.   
 1760  687 -3.008 -53232.   
 1773  742 -4.215 -53192.   
 1904  727 -1.704 -53019.   
 1913  691 -2.947 -53005.   
 1903  729 -1.505 -52989.   
 1767  682 -1.575 -52930.   
 1767  687 -2.695 -52923.   
 1768  691 -1.894 -52837.   
 1764  687 -1.870 -52752.   
 1766  682 -1.300 -52647.   
 1764  682 -1.040 -52582.   
 1766  687 -1.283 -52571.   
 1760  682 -1.921 -52487.   
 1770  713 -3.237 -52444.   
  826 1756 -3.248 -52304.   
 1912  713 -2.425 -52294.   
 1911  713 -3.098 -52288.   
 1918  700 -1.816 -52275.   
 1770  715 -2.501 -52232.   
 1925  691 -2.384 -52182.   
 1755  680 -2.300 -52176.   
 1910  712 -2.555 -52152.   
 1909  691 -2.381 -52150.   
  861 1737 -1.985 -52117.   
 1770  691 -3.327 -52101.   
 1893  734 -2.273 -52087.   
 1755  696 -2.677 -52080.   
 1903  727 -2.184 -52071.   
 1924  691 -2.403 -52065.   
 1911  711 -2.542 -51958.   
 1910  691 -2.899 -51937.   
  830 1754 -3.109 -51889.   
  858 1756 -2.967 -51865.   
  739 1926 -2.724 -51859.   
  857 1756 -2.993 -51854.   
 1922  680 -2.801 -51847.   
  829 1756 -3.085 -51838.   
  828 1756 -2.976 -51838.   
  859 1756 -2.980 -51837.   
  827 1756 -3.108 -51822.   
 1770  714 -2.809 -51818.   
  856 1756 -2.989 -51814.   
  831 1756 -3.054 -51803.   
  853 1754 -3.114 -51794.   
  855 1756 -2.962 -51794.   
  854 1756 -2.964 -51789.   
  823 1762 -2.968 -51785.   
  824 1756 -2.965 -51777.   
  825 1762 -3.355 -51773.   
 1908  691 -2.536 -51722.   
  810 1766 -0.828 -51685.   
 1770  712 -2.203 -51680.   
 1767  692 -2.068 -51580.   
 1770  711 -2.323 -51480.   
  809 1755 -1.958 -51368.   
  838 1758 -2.759 -51230.   
  738 1927 -2.579 -51100.   
  740 1735 -3.435 -51000.   
  740 1926 -2.939 -50865.   
  737 1735 -3.186 -50861.   
  863 1742 -2.089 -50826.   
 1772  838 -2.261 -50802.   
  742 1922 -3.898 -50757.   
  836 1758 -4.234 -50610.   
  739 1927 -3.206 -50550.   
 1904  724 -3.467 -50412.   
  735 1759 -3.310 -50400.   
  735 1747 -3.104 -50395.   
 1769  690 -3.159 -50178.   
  740 1927 -2.366 -50168.   
 1771  718 -1.800 -50128.   
  737 1927 -2.999 -50033.   
  695 1735 -3.428 -49991.   
  730 1733 -2.563 -49934.   
  735 1758 -1.784 -49910.   
  700 1733 -2.247 -49827.   
  730 1748 -2.679 -49810.   
 1760  677 -2.516 -49789.   
  731 1748 -2.793 -49780.   
  736 1926 -2.480 -49772.   
  733 1748 -2.580 -49745.   
  735 1742 -1.658 -49709.   
  731 1733 -2.520 -49632.   
  733 1733 -2.434 -49618.   
  732 1733 -2.446 -49593.   
  835 1758 -3.385 -49533.   
 1903  724 -3.560 -49505.   
 1767  690 -2.796 -49469.   
 1903  723 -3.059 -49468.   
 1903  721 -3.313 -49445.   
  788 1773 -2.627 -49190.   
  732 1748 -2.838 -49177.   
  820 1756 -2.832 -49135.   
  799 1771 -1.468 -49109.   
  807 1755 -2.159 -49016.   
  842 1736 -3.390 -48904.   
 1898  733 -4.377 -48862.   
 1892  720 -3.247 -48811.   
  820 1763 -3.964 -48808.   
 1900  731 -4.109 -48776.   
  820 1754 -2.140 -48712.   
 1929  685 -2.822 -48653.   
  716 1742 -3.404 -48288.   
 1896  731 -3.442 -48281.   
  849 1756 -2.316 -48228.   
  807 1769 -1.202 -48082.   
  801 1769 -1.451 -48038.   
 1895  730 -3.674 -47983.   
 1918  706 -2.435 -47939.   
 1769  695 -2.255 -47815.   
 1771  716 -3.163 -47753.   
 1771  861 -3.679 -47750.   
 1892  731 -4.110 -47720.   
 1771  713 -1.422 -47581.   
 1769  692 -2.004 -47551.   
 1913  695 -1.506 -47518.   
  794 1771 -1.374 -47413.   
 1771  711 -2.026 -47308.   
 1771  691 -1.913 -47299.   
  800 1769 -1.524 -47280.   
  810 1767 -2.493 -47239.   
 1914  685 -2.691 -47088.   
  831 1753 -1.502 -47011.   
  830 1753 -0.706 -47005.   
  831 1757 -0.774 -47005.   
  859 1753 -0.700 -46996.   
  858 1753 -0.700 -46994.   
  828 1753 -0.705 -46991.   
  829 1757 -0.702 -46991.   
  826 1753 -0.700 -46958.   
  827 1753 -0.699 -46958.   
  856 1753 -0.701 -46954.   
  857 1753 -0.728 -46954.   
  825 1753 -0.699 -46886.   
  854 1753 -0.699 -46882.   
  855 1753 -0.699 -46882.   
  823 1757 -0.699 -46876.   
  824 1753 -0.702 -46876.   
  852 1757 -0.698 -46841.   
  853 1753 -0.714 -46841.   
  821 1753 -0.698 -46816.   
  822 1753 -0.698 -46816.   
 1770  702 -1.230 -46786.   
 1912  702 -0.645 -46703.   
 1911  702 -0.655 -46666.   
 1910  695 -0.656 -46653.   
 1768  695 -0.856 -46652.   
 1925  695 -0.643 -46548.   
 1768  707 -1.869 -46548.   
 1924  695 -0.642 -46541.   
 1909  695 -0.647 -46524.   
 1768  702 -1.675 -46497.   
 1908  695 -0.714 -46484.   
 1768  708 -1.757 -46470.   
 1914  684 -2.128 -46368.   
 1770  708 -1.731 -46329.   
 1770  695 -0.899 -46308.   
 1874  736 -2.165 -46307.   
 1899  729 -2.773 -46230.   
 1897  729 -3.138 -46203.   
 1892  734 -2.126 -46122.   
  742 1767 -2.274 -46116.   
 1898  729 -2.655 -46107.   
 1906  715 -2.272 -46090.   
 1897  728 -2.149 -46034.   
 1880  740 -2.217 -46020.   
  798 1769 -1.546 -45945.   
 1895  729 -2.072 -45942.   
 1883  739 -2.733 -45935.   
  819 1756 -0.729 -45860.   
 1769  691 -1.443 -45854.   
 1877  737 -2.101 -45820.   
  819 1754 -1.905 -45805.   
 1894  729 -2.241 -45717.   
 1905  691 -1.463 -45701.   
 1879  739 -2.214 -45638.   
  802 1768  0.337 -45616.   
 1900  727 -2.244 -45556.   
 1883  738 -2.415 -45526.   
 1884  738 -2.275 -45498.   
  700 1731 -2.512 -45476.   
  717 1737 -2.386 -45440.   
 1904  718 -2.107 -45428.   
  731 1731 -2.735 -45417.   
  733 1740 -2.845 -45403.   
 1874  740 -2.630 -45352.   
 1876  739 -2.759 -45329.   
 1897  727 -2.796 -45319.   
  733 1731 -2.686 -45315.   
  732 1731 -2.675 -45312.   
 1896  727 -2.630 -45306.   
  797 1769 -1.658 -45280.   
 1880  738 -3.001 -45250.   
 1880  739 -2.996 -45235.   
  738 1756 -0.808 -45083.   
  738 1754 -1.333 -45066.   
  727 1756 -0.673 -45056.   
  739 1756 -0.897 -45021.   
  736 1758 -1.636 -44856.   
  728 1754 -1.376 -44747.   
  739 1754 -1.255 -44677.   
  728 1756 -0.687 -44642.   
  729 1754 -1.779 -44631.   
  741 1767 -2.240 -44579.   
 1904  717 -2.168 -44517.   
  729 1756 -0.674 -44456.   
  801 1771 -1.798 -44389.   
  740 1756 -1.038 -44375.   
  742 1760 -1.760 -44368.   
  740 1762 -1.177 -44368.   
  737 1762 -1.111 -44330.   
  737 1754 -2.761 -44273.   
  737 1756 -1.854 -44250.   
  800 1771 -2.479 -44177.   
  740 1754 -1.430 -44159.   
  843 1733 -1.556 -44157.   
 1926  685 -2.648 -44099.   
  736 1734 -2.808 -44024.   
  741 1923 -2.633 -44007.   
  734 1754 -1.262 -43909.   
  734 1756 -0.855 -43860.   
 1903  717 -2.285 -43808.   
  795 1769 -1.653 -43800.   
 1872  737 -1.966 -43629.   
  790 1772 -1.059 -43607.   
  842 1748 -2.271 -43576.   
  736 1756 -0.921 -43548.   
  736 1762 -1.589 -43535.   
 1872  740 -1.273 -43527.   
 1926  684 -1.750 -43350.   
  720 1742 -1.834 -43324.   
 1871  736 -2.063 -43285.   
  810 1768  0.133 -43266.   
 1872  739 -0.814 -43243.   
  806 1764 -1.971 -43224.   
 1889  720 -3.171 -43095.   
  798 1771 -2.140 -43008.   
 1891  734 -2.089 -42927.   
 1872  738 -0.730 -42849.   
  742 1769 -1.691 -42765.   
 1771  715 -2.849 -42696.   
  789 1772 -0.217 -42674.   
 1891  729 -0.749 -42541.   
  833 1766 -1.810 -42532.   
 1871  740 -1.177 -42491.   
 1870  737 -1.969 -42473.   
  797 1771 -1.920 -42425.   
 1771  714 -2.188 -42419.   
  735 1736 -1.988 -42321.   
 1869  736 -1.530 -42314.   
 1772  728 -0.791 -42280.   
 1889  731 -2.355 -42242.   
  735 1751 -2.080 -42241.   
 1889  730 -2.243 -42220.   
 1891  728 -1.195 -42156.   
  710 1736 -1.731 -42130.   
 1870  739 -1.855 -42108.   
 1771  712 -2.047 -42099.   
  850 1737 -2.710 -42039.   
 1888  720 -2.243 -41979.   
  813 1762 -3.679 -41886.   
  835 1751 -3.548 -41845.   
 1871  738 -0.711 -41834.   
 1871  739 -0.908 -41821.   
  805 1760 -1.070 -41815.   
 1891  727 -0.893 -41790.   
 1870  738 -1.117 -41733.   
  806 1760 -1.940 -41707.   
 1772  727 -0.872 -41642.   
 1869  740 -0.824 -41555.   
 1868  737 -0.552 -41445.   
 1868  740 -3.246 -41353.   
 1913  684 -3.116 -41339.   
  849 1737 -2.886 -41321.   
 1905  702 -3.824 -41296.   
 1768  684 -2.134 -41230.   
  729 1737 -3.525 -41122.   
 1890  729 -0.590 -41105.   
  801 1768 -1.178 -40992.   
  801 1770 -0.812 -40855.   
  800 1768 -1.514 -40811.   
 1868  738 -1.073 -40769.   
  741 1768 -0.041 -40695.   
 1889  729 -0.889 -40633.   
 1890  727 -1.273 -40550.   
 1902  717 -2.835 -40502.   
 1889  728 -1.497 -40501.   
 1770  684 -2.810 -40485.   
  799 1768 -0.719 -40365.   
  799 1770 -0.150 -40202.   
  798 1768 -0.503 -39812.   
  809 1768 -0.044 -39802.   
 1928  680 -2.838 -39543.   
  796 1770 -0.807 -39542.   
  808 1768 -0.043 -39488.   
  794 1770 -0.746 -39421.   
  742 1768 -1.019 -39405.   
 1888  728 -0.839 -39305.   
  796 1768 -0.151 -39303.   
  794 1768 -0.169 -39249.   
  742 1925 -0.445 -39228.   
 1914  680 -2.864 -39061.   
  807 1768 -0.067 -38931.   
 1904  711 -3.179 -38812.   
  820 1742 -2.469 -38759.   
 1772  734 -1.253 -38713.   
  833 1751 -2.478 -38679.   
  863 1733 -2.118 -38629.   
 1866  740 -0.961 -38534.   
  735 1748 -2.252 -38530.   
  796 1769 -1.212 -38506.   
 1903  713 -2.724 -38451.   
  794 1769 -1.162 -38391.   
 1903  712 -2.833 -38383.   
 1866  739 -1.125 -38311.   
  728 1737 -3.030 -38279.   
  735 1733 -1.943 -38254.   
  793 1770 -0.680 -38144.   
  710 1733 -1.683 -38127.   
  793 1768 -0.232 -38049.   
 1913  689 -1.931 -38032.   
 1771  703 -1.627 -37901.   
 1907  685 -2.701 -37818.   
 1771  684 -2.131 -37784.   
  830 1746 -1.232 -37703.   
  831 1750 -1.301 -37703.   
  859 1746 -1.227 -37698.   
  858 1746 -1.226 -37696.   
  828 1746 -1.231 -37694.   
  829 1750 -1.229 -37694.   
  826 1746 -1.226 -37672.   
  827 1746 -1.226 -37672.   
  856 1746 -1.227 -37669.   
  857 1746 -1.255 -37669.   
  825 1746 -1.225 -37623.   
  854 1746 -1.225 -37620.   
  855 1746 -1.225 -37620.   
  823 1750 -1.225 -37616.   
  824 1746 -1.229 -37616.   
  852 1750 -1.225 -37592.   
  853 1746 -1.240 -37592.   
  821 1746 -1.224 -37575.   
  822 1746 -1.224 -37575.   
 1770  694 -1.662 -37562.   
 1912  694 -1.076 -37501.   
 1911  694 -1.088 -37484.   
 1768  689 -1.201 -37477.   
 1910  689 -1.088 -37477.   
 1925  689 -1.075 -37404.   
 1924  689 -1.079 -37403.   
 1909  689 -1.078 -37385.   
 1768  694 -2.108 -37367.   
 1908  689 -1.144 -37367.   
 1770  689 -1.269 -37246.   
 1907  684 -1.955 -37214.   
 1906  685 -2.674 -37209.   
  793 1769 -1.163 -37179.   
  861 1733 -1.785 -37169.   
 1905  685 -2.200 -37131.   
 1755  678 -2.092 -37095.   
  742 1735 -2.968 -37055.   
  805 1768 -1.890 -36965.   
  819 1747 -1.143 -36905.   
  819 1742 -2.453 -36896.   
 1769  684 -1.677 -36781.   
 1906  684 -2.324 -36748.   
 1906  704 -2.956 -36746.   
 1905  684 -1.815 -36682.   
 1772  847 -3.015 -36675.   
  847 1742 -2.833 -36672.   
 1905  703 -3.174 -36658.   
 1906  703 -2.606 -36634.   
 1764  678 -4.331 -36545.   
  738 1758 -2.551 -36509.   
  738 1747 -1.316 -36418.   
  739 1759 -1.546 -36399.   
  738 1759 -1.460 -36396.   
  727 1747 -1.074 -36392.   
  810 1762 -1.223 -36354.   
  728 1742 -2.156 -36175.   
  739 1742 -2.228 -36160.   
  739 1747 -1.303 -36136.   
  728 1747 -1.112 -36128.   
  729 1742 -2.351 -36031.   
  843 1755 -2.012 -36023.   
  729 1747 -1.109 -35990.   
  740 1759 -1.743 -35974.   
  740 1747 -1.234 -35954.   
  737 1759 -1.463 -35907.   
  737 1742 -3.594 -35895.   
  810 1755 -1.795 -35887.   
 1772  719 -3.204 -35881.   
  737 1747 -3.098 -35871.   
 1929  677 -3.187 -35827.   
 1904  695 -3.392 -35798.   
  804 1768 -1.139 -35754.   
  735 1731 -2.508 -35700.   
  734 1742 -2.283 -35625.   
  734 1747 -1.098 -35608.   
  710 1731 -2.388 -35590.   
  740 1742 -2.532 -35590.   
  830 1741 -3.809 -35493.   
  831 1752 -3.765 -35491.   
  858 1741 -3.709 -35491.   
  859 1741 -3.714 -35489.   
  829 1752 -3.796 -35485.   
  828 1741 -3.729 -35484.   
 1907  700 -2.688 -35483.   
  827 1741 -3.789 -35473.   
  856 1741 -3.744 -35470.   
 1889  718 -2.987 -35455.   
 1918  690 -2.468 -35449.   
  855 1741 -3.802 -35438.   
  854 1741 -3.808 -35435.   
  823 1752 -3.825 -35432.   
  824 1741 -3.822 -35430.   
  709 1755 -1.416 -35418.   
  736 1747 -1.422 -35413.   
  736 1759 -1.791 -35395.   
 1903  695 -3.055 -35326.   
 1911  699 -4.928 -35214.   
 1926  678 -3.240 -35209.   
  806 1735 -3.217 -35180.   
 1914  678 -1.614 -35075.   
 1914  677 -2.882 -34883.   
 1899  716 -3.936 -34854.   
 1771  706 -2.013 -34841.   
  742 1928 -3.786 -34721.   
 1906  700 -2.429 -34721.   
  814 1747 -2.948 -34701.   
  814 1742 -3.672 -34693.   
 1771  705 -3.110 -34674.   
  682 1735 -3.867 -34662.   
  805 1735 -3.103 -34564.   
 1771  704 -2.533 -34556.   
 1907  694 -3.406 -34511.   
 1771  709 -3.582 -34376.   
  813 1759 -4.001 -34286.   
  851 1736 -3.097 -34256.   
  709 1734 -2.156 -34231.   
  843 1734 -2.226 -34223.   
 1773  826 -4.275 -34200.   
 1773  831 -3.584 -34173.   
 1922  678 -2.511 -34062.   
  808 1734 -2.831 -34002.   
  820 1736 -2.570 -33994.   
 1901  710 -3.245 -33975.   
 1918  691 -2.686 -33934.   
  728 1732 -4.001 -33902.   
  809 1763 -3.742 -33879.   
  809 1762 -4.466 -33854.   
 1899  710 -4.155 -33832.   
  798 1755 -2.219 -33780.   
  792 1768 -2.079 -33779.   
  792 1770 -1.902 -33685.   
  843 1737 -2.480 -33683.   
  791 1768 -2.797 -33617.   
 1769  682 -2.713 -33592.   
  719 1733 -2.587 -33587.   
  791 1770 -3.944 -33525.   
 1913  682 -2.238 -33454.   
  808 1755 -2.180 -33349.   
  812 1742 -2.817 -33306.   
  841 1737 -3.443 -33270.   
  830 1739 -1.594 -33198.   
  831 1744 -1.663 -33198.   
  859 1739 -1.589 -33194.   
  858 1739 -1.588 -33193.   
  828 1739 -1.593 -33191.   
  829 1744 -1.591 -33191.   
  826 1739 -1.589 -33173.   
  827 1739 -1.589 -33173.   
  856 1739 -1.590 -33172.   
  857 1739 -1.618 -33172.   
  825 1739 -1.590 -33135.   
  854 1739 -1.590 -33132.   
  855 1739 -1.589 -33132.   
  823 1744 -1.590 -33128.   
  824 1739 -1.593 -33128.   
  852 1744 -1.590 -33110.   
  853 1739 -1.606 -33110.   
  822 1739 -1.590 -33096.   
 1770  687 -1.961 -33090.   
 1912  687 -1.388 -33039.   
 1911  687 -1.394 -33029.   
 1910  682 -1.394 -33024.   
 1768  682 -1.510 -33023.   
 1925  682 -1.384 -32960.   
 1924  682 -1.384 -32957.   
 1909  682 -1.391 -32949.   
 1908  682 -1.453 -32938.   
 1768  687 -2.420 -32934.   
 1771  700 -2.584 -32884.   
 1770  682 -1.581 -32841.   
  841 1735 -3.203 -32790.   
  847 1736 -3.506 -32756.   
  789 1771 -1.677 -32626.   
  819 1741 -1.235 -32556.   
  819 1736 -2.198 -32553.   
 1907  680 -3.014 -32461.   
 1904  705 -3.020 -32358.   
 1872  735 -1.746 -32305.   
  738 1751 -2.807 -32232.   
 1913  678 -2.066 -32223.   
  727 1736 -2.551 -32219.   
  738 1741 -1.578 -32183.   
  739 1752 -1.835 -32171.   
  738 1752 -1.720 -32166.   
  727 1741 -1.355 -32165.   
 1903  706 -2.335 -32124.   
  739 1736 -2.356 -31979.   
  739 1741 -1.506 -31963.   
  728 1741 -1.277 -31956.   
 1905  680 -2.510 -31953.   
  806 1763 -2.087 -31938.   
  728 1736 -2.335 -31883.   
  729 1736 -2.253 -31878.   
 1903  703 -2.840 -31873.   
  806 1756 -2.644 -31864.   
  729 1741 -1.233 -31842.   
  740 1752 -1.878 -31828.   
 1891  710 -1.817 -31827.   
  740 1741 -1.348 -31818.   
  803 1768 -1.497 -31801.   
  737 1752 -1.594 -31776.   
  834 1737 -2.248 -31670.   
 1870  735 -1.649 -31667.   
 1768  677 -3.034 -31667.   
  740 1736 -2.369 -31636.   
  734 1736 -2.087 -31555.   
  734 1741 -1.163 -31542.   
  802 1769 -1.269 -31517.   
 1871  735 -1.685 -31491.   
  851 1733 -2.327 -31460.   
  832 1756 -2.040 -31444.   
  736 1752 -1.702 -31374.   
 1769  680 -2.366 -31361.   
  820 1733 -1.670 -31245.   
 1889  712 -3.395 -31241.   
  820 1748 -2.846 -31108.   
  832 1754 -1.566 -31106.   
  839 1737 -2.178 -31067.   
 1767  680 -2.773 -31065.   
 1890  710 -1.733 -31004.   
 1869  735 -1.589 -30974.   
 1904  700 -1.994 -30901.   
 1868  735 -1.574 -30884.   
  806 1754 -2.212 -30766.   
  806 1755 -1.797 -30656.   
 1889  710 -1.828 -30650.   
  836 1737 -2.770 -30629.   
  838 1737 -2.194 -30584.   
  790 1771 -2.768 -30570.   
  805 1754 -1.427 -30563.   
 1903  700 -2.109 -30518.   
  810 1747 -1.498 -30476.   
  834 1734 -2.872 -30450.   
 1902  685 -3.231 -30404.   
 1771  696 -2.364 -30304.   
 1907  692 -3.933 -30242.   
  835 1737 -3.550 -30231.   
  735 1737 -3.543 -30174.   
  802 1766 -1.817 -30113.   
 1888  710 -1.630 -30081.   
  810 1758 -2.223 -30064.   
  819 1733 -2.545 -30023.   
 1923  677 -2.185 -29999.   
  812 1752 -3.050 -29989.   
  812 1741 -2.526 -29980.   
  812 1736 -3.382 -29943.   
 1771  677 -4.221 -29880.   
 1773  834 -3.913 -29864.   
 1903  689 -3.410 -29799.   
 1903  694 -3.928 -29796.   
  812 1751 -3.825 -29793.   
 1901  685 -3.204 -29707.   
  738 1733 -2.927 -29622.   
  801 1755 -2.303 -29618.   
 1899  685 -3.578 -29597.   
  739 1748 -3.161 -29588.   
  738 1748 -3.071 -29582.   
  727 1733 -2.724 -29567.   
  728 1733 -2.664 -29484.   
 1866  735 -1.555 -29471.   
  861 1735 -2.711 -29453.   
  729 1733 -2.556 -29442.   
  739 1733 -2.874 -29437.   
  820 1731 -2.890 -29423.   
  737 1748 -2.922 -29392.   
  740 1733 -2.778 -29383.   
  862 1734 -2.915 -29334.   
  799 1755 -2.390 -29273.   
 1773  735 -4.402 -29241.   
 1772  863 -2.625 -29217.   
  734 1733 -2.572 -29118.   
 1905  677 -2.710 -29102.   
  790 1770 -3.139 -29049.   
  810 1764 -1.254 -29025.   
  736 1733 -2.526 -28996.   
  783 1773 -3.927 -28814.   
  861 1734 -1.926 -28737.   
  716 1734 -2.473 -28736.   
  796 1755 -2.416 -28726.   
 1904  680 -2.556 -28549.   
  802 1767 -1.413 -28547.   
 1904  696 -2.447 -28520.   
  836 1742 -3.473 -28498.   
 1767  677 -2.832 -28427.   
  819 1731 -2.772 -28392.   
 1764  677 -3.827 -28294.   
 1901  700 -2.459 -28247.   
 1903  696 -2.584 -28227.   
 1898  700 -3.446 -28102.   
 1883  731 -3.429 -28095.   
 1882  731 -3.185 -28091.   
  738 1731 -3.082 -28067.   
 1879  732 -3.379 -28066.   
 1895  700 -2.792 -28004.   
  801 1766 -1.423 -27988.   
 1878  733 -2.782 -27988.   
  801 1764 -0.943 -27980.   
 1877  733 -2.822 -27976.   
  741 1760 -1.547 -27932.   
  741 1766 -1.547 -27916.   
  800 1764 -0.799 -27901.   
  810 1760 -1.505 -27892.   
  741 1764 -0.905 -27865.   
  800 1767 -2.241 -27847.   
  800 1760 -2.193 -27763.   
  799 1766 -0.774 -27680.   
  734 1731 -2.963 -27597.   
 1891  709 -2.027 -27592.   
 1772  709 -1.720 -27542.   
 1869  734 -1.746 -27469.   
  809 1760 -1.461 -27452.   
  810 1741 -1.009 -27444.   
  798 1764 -0.799 -27437.   
  809 1764 -0.969 -27387.   
  798 1767 -1.750 -27378.   
  809 1766 -1.357 -27358.   
  808 1764 -0.751 -27312.   
  742 1764 -0.747 -27297.   
  796 1764 -0.912 -27245.   
  797 1766 -0.812 -27240.   
  796 1766 -1.777 -27212.   
  797 1764 -1.571 -27187.   
  795 1764 -0.754 -27177.   
  794 1764 -1.289 -27162.   
  794 1766 -0.890 -27154.   
 1872  733 -2.507 -27143.   
 1872  732 -1.799 -27142.   
  796 1767 -1.502 -27137.   
 1872  731 -1.383 -27065.   
  795 1760 -2.388 -27002.   
  806 1758 -1.922 -26990.   
 1872  730 -1.267 -26976.   
  832 1742 -1.904 -26974.   
  736 1742 -1.972 -26908.   
 1755  677 -2.347 -26869.   
 1902  680 -3.431 -26842.   
  820 1737 -2.793 -26800.   
 1889  703 -3.159 -26799.   
  807 1764 -0.759 -26751.   
  805 1742 -1.885 -26723.   
 1871  732 -1.778 -26702.   
 1891  700 -0.954 -26702.   
 1870  733 -1.043 -26700.   
  833 1742 -1.894 -26684.   
  805 1758 -2.805 -26677.   
  807 1760 -2.157 -26661.   
  796 1760 -2.594 -26647.   
 1870  731 -2.338 -26616.   
  793 1766 -1.425 -26586.   
 1871  731 -1.419 -26581.   
  793 1764 -0.884 -26574.   
 1871  730 -1.239 -26573.   
 1869  720 -1.870 -26538.   
 1870  730 -1.650 -26530.   
 1772  700 -1.011 -26486.   
  788 1772 -2.765 -26484.   
 1888  703 -2.283 -26469.   
 1901  699 -1.343 -26358.   
 1868  733 -1.096 -26282.   
 1900  699 -0.741 -26281.   
 1884  722 -0.824 -26278.   
 1882  723 -1.526 -26276.   
 1883  722 -0.959 -26275.   
 1884  721 -1.530 -26275.   
 1883  721 -1.232 -26273.   
 1881  723 -1.400 -26273.   
 1899  699 -0.865 -26272.   
 1882  722 -1.392 -26271.   
 1882  721 -0.962 -26269.   
 1881  721 -0.859 -26267.   
 1898  699 -1.248 -26249.   
 1769  677 -2.507 -26214.   
 1869  731 -1.483 -26212.   
 1897  699 -0.788 -26207.   
 1896  699 -0.746 -26203.   
 1880  724 -1.335 -26198.   
 1879  724 -1.338 -26192.   
 1880  723 -0.877 -26187.   
 1879  723 -0.879 -26182.   
 1890  700 -1.016 -26162.   
 1868  730 -1.564 -26139.   
 1895  699 -0.738 -26134.   
 1894  699 -0.900 -26122.   
 1878  699 -0.785 -26117.   
 1877  725 -0.780 -26114.   
 1876  726 -1.343 -26101.   
 1878  722 -1.789 -26100.   
 1877  722 -1.788 -26097.   
 1876  724 -0.864 -26090.   
 1875  724 -0.863 -26082.   
 1893  697 -0.737 -26061.   
 1892  699 -0.767 -26053.   
 1874  726 -0.737 -26006.   
 1873  726 -0.736 -26001.   
 1889  700 -1.017 -25938.   
  820 1734 -2.438 -25921.   
 1770  678 -3.462 -25800.   
 1871  728 -3.307 -25791.   
  734 1740 -2.948 -25780.   
  738 1737 -2.944 -25659.   
  819 1735 -3.950 -25604.   
  804 1760 -3.183 -25487.   
 1888  700 -1.053 -25456.   
  804 1764 -1.807 -25431.   
  804 1766 -2.418 -25405.   
  807 1752 -3.173 -25396.   
  738 1735 -3.051 -25384.   
 1872  723 -3.749 -25376.   
  793 1767 -3.191 -25358.   
 1866  720 -1.533 -25287.   
 1866  732 -1.436 -25113.   
 1866  731 -1.615 -25047.   
  845 1735 -1.718 -25029.   
 1866  730 -2.757 -24984.   
  786 1772 -2.464 -24956.   
  849 1734 -2.244 -24939.   
 1902  678 -0.565 -24898.   
 1918  680 -3.058 -24862.   
  806 1736 -3.160 -24822.   
 1902  677 -3.500 -24801.   
  814 1737 -2.923 -24791.   
  838 1733 -2.836 -24735.   
  806 1751 -2.130 -24718.   
 1771  678 -1.519 -24708.   
  813 1737 -3.050 -24577.   
  832 1736 -2.122 -24574.   
 1904  691 -2.359 -24573.   
  833 1736 -2.092 -24549.   
 1866  734 -3.173 -24546.   
  814 1735 -2.394 -24524.   
  736 1736 -2.080 -24507.   
 1907  678 -0.707 -24463.   
 1901  678 -0.730 -24429.   
  792 1764 -1.815 -24420.   
 1899  678 -1.211 -24355.   
  791 1764 -1.881 -24340.   
 1903  691 -2.277 -24332.   
 1898  678 -0.707 -24321.   
 1896  678 -2.768 -24291.   
 1769  678 -1.489 -24217.   
 1894  678 -1.054 -24212.   
 1906  678 -0.676 -24207.   
 1921  678 -0.545 -24177.   
 1905  678 -0.759 -24174.   
 1917  678 -0.546 -24041.   
  814 1734 -2.336 -24037.   
  802 1755 -1.269 -23966.   
 1916  678 -0.546 -23924.   
 1920  678 -0.547 -23903.   
 1888  696 -3.841 -23882.   
 1915  678 -0.559 -23865.   
  813 1734 -2.313 -23836.   
 1872  717 -1.857 -23799.   
  842 1755 -2.147 -23794.   
 1871  718 -2.524 -23723.   
 1773  722 -4.055 -23706.   
 1867  722 -3.400 -23701.   
  791 1760 -2.779 -23667.   
 1773  721 -4.192 -23560.   
 1891  692 -1.957 -23555.   
 1772  692 -1.932 -23518.   
  811 1735 -1.988 -23503.   
 1871  717 -2.614 -23473.   
  810 1756 -1.761 -23472.   
 1870  717 -1.977 -23450.   
 1869  718 -2.231 -23429.   
  803 1764 -2.104 -23387.   
 1919  678 -0.557 -23385.   
 1868  718 -2.234 -23377.   
  803 1766 -2.893 -23365.   
 1893  691 -2.974 -23343.   
  791 1769 -3.679 -23336.   
  806 1748 -2.252 -23273.   
 1890  692 -1.999 -23198.   
  810 1754 -2.204 -23151.   
 1868  717 -3.642 -23134.   
  833 1733 -2.078 -23133.   
 1918  677 -3.055 -23113.   
  832 1733 -1.901 -23103.   
  805 1733 -1.915 -23017.   
  805 1748 -3.077 -23002.   
 1889  692 -2.015 -22999.   
 1916  677 -4.308 -22981.   
 1901  691 -2.876 -22866.   
 1890  678 -1.940 -22854.   
  801 1763 -2.225 -22825.   
  801 1754 -1.832 -22804.   
  801 1756 -1.365 -22798.   
  741 1754 -2.168 -22782.   
  800 1756 -1.302 -22741.   
  800 1754 -1.849 -22737.   
  741 1756 -1.218 -22720.   
 1878  691 -3.238 -22691.   
 1888  692 -1.975 -22677.   
  799 1763 -2.404 -22619.   
  799 1762 -1.729 -22608.   
  799 1756 -1.346 -22582.   
  839 1735 -2.625 -22534.   
  838 1755 -2.280 -22519.   
 1772  682 -5.988 -22518.   
 1874  712 -5.980 -22498.   
  798 1756 -1.440 -22433.   
  798 1754 -1.481 -22433.   
  809 1754 -1.950 -22428.   
  809 1756 -1.224 -22402.   
  742 1754 -2.744 -22372.   
  839 1734 -2.450 -22349.   
  808 1756 -1.183 -22346.   
  742 1756 -1.165 -22328.   
  794 1756 -2.017 -22320.   
  797 1762 -1.234 -22288.   
  796 1756 -1.328 -22270.   
  797 1756 -2.013 -22268.   
  795 1756 -1.173 -22246.   
  794 1762 -1.252 -22242.   
  795 1754 -2.720 -22233.   
 1866  717 -2.023 -22224.   
  796 1754 -1.769 -22216.   
  833 1731 -2.682 -22174.   
 1872  714 -2.155 -22132.   
 1872  713 -2.829 -22124.   
 1872  712 -1.738 -22102.   
  805 1731 -2.523 -22067.   
 1872  711 -2.995 -22065.   
 1872  691 -1.633 -22063.   
  834 1735 -2.234 -21979.   
  807 1754 -1.686 -21968.   
  807 1756 -1.315 -21956.   
 1871  716 -2.404 -21878.   
 1871  714 -2.079 -21845.   
 1891  691 -1.315 -21842.   
 1870  691 -1.330 -21837.   
  793 1756 -1.291 -21833.   
  793 1762 -1.921 -21829.   
  785 1772 -1.393 -21784.   
 1871  711 -1.637 -21784.   
 1871  712 -1.791 -21759.   
 1772  691 -1.347 -21728.   
 1901  695 -1.839 -21726.   
 1900  695 -1.236 -21674.   
 1884  695 -1.244 -21671.   
 1883  702 -1.343 -21669.   
 1883  695 -1.897 -21668.   
 1881  695 -1.893 -21667.   
 1882  702 -1.892 -21667.   
 1899  695 -1.360 -21667.   
 1882  695 -1.343 -21666.   
 1881  702 -1.354 -21664.   
 1898  695 -1.734 -21648.   
 1897  695 -1.283 -21622.   
 1896  695 -1.240 -21619.   
 1880  707 -1.863 -21613.   
 1880  695 -1.360 -21608.   
 1879  695 -1.248 -21604.   
 1869  714 -1.741 -21595.   
 1895  695 -1.233 -21569.   
 1894  695 -1.396 -21561.   
 1878  695 -1.237 -21557.   
 1877  702 -1.232 -21555.   
 1868  713 -1.467 -21548.   
 1876  708 -1.837 -21544.   
 1876  695 -1.388 -21539.   
 1875  707 -1.356 -21534.   
 1893  702 -1.231 -21518.   
 1892  695 -1.260 -21513.   
 1868  711 -2.010 -21492.   
 1868  691 -2.532 -21490.   
 1890  691 -1.370 -21480.   
 1874  708 -1.230 -21479.   
 1873  708 -1.229 -21476.   
  802 1747 -2.152 -21426.   
  742 1737 -3.172 -21414.   
 1889  691 -1.368 -21328.   
 1869  710 -3.488 -21276.   
  802 1758 -1.022 -21221.   
  786 1771 -2.846 -21147.   
  787 1769 -1.446 -21070.   
  788 1771 -1.579 -21035.   
 1888  691 -1.395 -21016.   
  790 1769 -1.542 -20971.   
  741 1737 -3.048 -20948.   
  804 1754 -3.172 -20935.   
 1866  715 -1.898 -20825.   
  810 1742 -1.985 -20776.   
  789 1767 -1.967 -20770.   
 1866  714 -1.824 -20764.   
 1866  712 -1.936 -20737.   
 1865  742 -0.771 -20732.   
  802 1764 -1.457 -20698.   
 1907  677 -2.979 -20468.   
  801 1758 -2.631 -20385.   
  792 1756 -1.939 -20377.   
  801 1759 -1.547 -20349.   
  791 1756 -2.198 -20319.   
  802 1760 -1.186 -20306.   
  788 1770 -2.165 -20304.   
  800 1747 -1.495 -20304.   
  741 1747 -1.494 -20284.   
 1895  684 -3.586 -20234.   
 1878  684 -3.597 -20223.   
 1894  684 -3.637 -20217.   
 1877  703 -3.649 -20214.   
  800 1742 -2.886 -20192.   
  799 1747 -2.004 -20188.   
  799 1759 -1.624 -20184.   
  798 1759 -2.538 -20064.   
  798 1742 -2.629 -20061.   
  798 1747 -1.551 -20054.   
  809 1742 -2.736 -20047.   
  809 1747 -1.497 -20033.   
  788 1769 -1.441 -20027.   
  790 1768 -1.645 -20002.   
  787 1770 -2.957 -20002.   
  808 1747 -1.495 -19983.   
  742 1747 -1.493 -19969.   
  789 1768 -1.680 -19965.   
  797 1759 -1.501 -19937.   
  796 1759 -2.100 -19934.   
  796 1747 -1.623 -19928.   
 1872  685 -2.340 -19912.   
  795 1747 -1.509 -19904.   
  794 1759 -2.156 -19903.   
  794 1747 -1.603 -19895.   
  805 1737 -3.313 -19851.   
 1872  684 -1.588 -19744.   
  789 1769 -1.561 -19707.   
 1891  685 -2.317 -19678.   
  807 1747 -1.564 -19673.   
  779 1772 -1.792 -19669.   
 1870  685 -2.318 -19668.   
  803 1756 -2.310 -19651.   
  793 1747 -1.693 -19578.   
  793 1759 -2.065 -19572.   
 1891  684 -1.590 -19546.   
 1870  684 -1.606 -19541.   
 1871  703 -1.634 -19521.   
 1901  689 -2.178 -19502.   
 1772  684 -1.639 -19477.   
 1900  689 -1.577 -19460.   
 1884  689 -1.586 -19458.   
 1883  689 -2.247 -19456.   
 1883  694 -1.682 -19456.   
 1899  689 -1.702 -19455.   
 1882  689 -1.682 -19454.   
 1881  689 -2.199 -19454.   
 1882  694 -2.242 -19454.   
 1881  694 -1.695 -19452.   
 1898  689 -1.990 -19439.   
 1897  689 -1.624 -19418.   
 1896  689 -1.582 -19415.   
 1868  706 -2.247 -19406.   
 1880  689 -1.576 -19406.   
 1879  689 -1.577 -19403.   
 1895  689 -1.576 -19375.   
 1894  689 -1.788 -19369.   
 1878  689 -1.580 -19364.   
 1877  694 -1.576 -19362.   
 1876  689 -1.576 -19350.   
 1875  689 -1.575 -19345.   
 1893  694 -1.574 -19332.   
 1892  689 -1.604 -19328.   
 1868  703 -1.636 -19314.   
 1869  703 -1.905 -19308.   
 1874  689 -1.574 -19300.   
 1873  689 -1.574 -19297.   
 1889  685 -2.362 -19263.   
 1890  684 -1.658 -19261.   
  783 1772 -1.887 -19181.   
 1889  684 -1.643 -19133.   
  762 1773 -3.834 -19064.   
 1888  685 -2.236 -19037.   
  776 1772 -2.074 -18996.   
  801 1752 -1.896 -18956.   
  741 1736 -2.981 -18919.   
  800 1741 -1.805 -18917.   
  741 1741 -1.797 -18900.   
 1888  684 -1.734 -18892.   
  804 1742 -2.604 -18891.   
  781 1772 -2.788 -18890.   
  800 1736 -3.065 -18855.   
  739 1735 -2.800 -18836.   
  785 1771 -1.853 -18824.   
  799 1741 -2.241 -18815.   
  799 1752 -1.888 -18813.   
 1866  685 -2.276 -18798.   
  798 1741 -1.600 -18699.   
 1866  684 -1.913 -18680.   
  809 1741 -1.569 -18680.   
  809 1736 -2.601 -18656.   
  808 1741 -1.498 -18637.   
  742 1736 -2.592 -18635.   
  742 1741 -1.481 -18623.   
  797 1752 -1.508 -18595.   
  796 1741 -1.579 -18589.   
  795 1741 -1.448 -18566.   
  794 1741 -1.589 -18561.   
  807 1741 -1.335 -18365.   
 1900  682 -1.831 -18187.   
 1884  682 -1.841 -18184.   
 1883  687 -1.934 -18183.   
 1899  682 -1.958 -18182.   
 1882  682 -1.935 -18181.   
 1881  687 -1.952 -18180.   
 1897  682 -1.884 -18149.   
 1878  682 -1.845 -18101.   
 1877  687 -1.841 -18100.   
  803 1742 -2.843 -17821.   
  803 1747 -2.720 -17803.   
  742 1733 -2.904 -17776.   
 1889  680 -2.515 -17767.   
  804 1741 -1.958 -17747.   
 1772  678 -3.090 -17665.   
  792 1760 -2.356 -17628.   
  774 1772 -3.029 -17539.   
  802 1754 -1.913 -17527.   
  741 1731 -3.077 -17447.   
  793 1733 -2.788 -17444.   
 1866  680 -2.496 -17373.   
 1864  737 -2.558 -17316.   
  792 1741 -3.060 -17252.   
  792 1752 -1.878 -17252.   
  791 1741 -1.937 -17210.   
 1870  678 -2.755 -17207.   
 1864  738 -3.037 -17197.   
  742 1731 -3.123 -17189.   
 1871  690 -2.827 -17166.   
  797 1740 -3.162 -17166.   
 1891  677 -2.717 -17164.   
 1870  677 -2.765 -17160.   
  794 1740 -3.252 -17093.   
 1890  677 -2.834 -16978.   
 1889  677 -2.780 -16872.   
  803 1741 -1.954 -16727.   
  800 1755 -1.553 -16515.   
  801 1737 -0.877 -16491.   
  800 1737 -2.212 -16462.   
  791 1733 -3.341 -16449.   
  804 1731 -2.924 -16432.   
  800 1735 -1.336 -16344.   
 1857  742 -0.600 -16318.   
 1862  738 -2.527 -16254.   
  789 1760 -1.470 -16246.   
  787 1760 -1.719 -16217.   
  790 1760 -1.500 -16207.   
  801 1734 -1.919 -16154.   
  800 1734 -1.511 -16126.   
 1861  740 -2.714 -16088.   
  741 1755 -1.443 -16061.   
  741 1735 -1.272 -16027.   
  788 1767 -2.043 -16007.   
  791 1731 -2.791 -15958.   
  786 1764 -2.190 -15870.   
  741 1734 -1.438 -15812.   
  802 1732 -1.842 -15756.   
  791 1754 -2.104 -15584.   
  792 1754 -1.638 -15568.   
 1860  740 -2.289 -15517.   
  775 1769 -1.327 -15437.   
  786 1767 -1.996 -15436.   
  787 1768 -2.309 -15432.   
  801 1742 -2.164 -15429.   
  786 1769 -1.117 -15426.   
  774 1769 -2.462 -15364.   
  802 1741 -0.580 -15295.   
  775 1771 -2.104 -15244.   
  802 1736 -1.652 -15236.   
  792 1755 -2.408 -15232.   
  791 1755 -0.501 -15199.   
  804 1755 -0.610 -15197.   
  792 1737  0.033 -15187.   
  804 1735 -0.236 -15166.   
  791 1737 -1.128 -15154.   
  803 1755 -0.507 -15079.   
  791 1735 -0.260 -15054.   
  803 1735 -0.216 -15035.   
  786 1768 -1.639 -14975.   
  804 1734 -0.336 -14974.   
  803 1734 -0.376 -14952.   
  792 1734 -1.044 -14900.   
  791 1734 -0.430 -14869.   
  785 1769 -1.700 -14855.   
 1859  737 -3.090 -14800.   
 1859  738 -2.515 -14709.   
  786 1735 -0.219 -14652.   
  784 1755 -0.935 -14613.   
 1857  738 -2.983 -14491.   
  792 1747 -3.063 -14403.   
  787 1756 -3.549 -14403.   
  789 1756 -2.651 -14369.   
  790 1754 -1.932 -14354.   
 1865  730 -2.980 -14349.   
  789 1754 -2.075 -14298.   
  792 1742 -1.268 -14281.   
  784 1764 -1.664 -14223.   
  784 1767 -1.450 -14190.   
  785 1767 -1.873 -14161.   
 1865  729 -1.476 -14161.   
  786 1734 -0.600 -14104.   
  786 1756 -1.719 -14085.   
 1865  727 -2.206 -14073.   
  772 1769 -0.432 -13954.   
  775 1755 -0.594 -13898.   
  784 1769 -0.707 -13856.   
  786 1755 -0.808 -13803.   
  772 1771 -1.114 -13796.   
 1863  734 -2.183 -13726.   
 1864  729 -1.623 -13719.   
  780 1769 -2.369 -13676.   
  774 1755 -2.618 -13671.   
  782 1755 -2.552 -13666.   
 1864  727 -2.240 -13656.   
  792 1736 -2.190 -13646.   
  784 1768 -0.820 -13500.   
 1864  719 -3.240 -13488.   
  772 1770 -2.732 -13477.   
  788 1742 -3.267 -13472.   
 1850  742 -3.921 -13454.   
  781 1769 -2.259 -13450.   
  772 1768 -2.755 -13449.   
  769 1771 -2.515 -13437.   
  788 1758 -2.326 -13411.   
  777 1755 -2.883 -13383.   
  783 1769 -2.265 -13361.   
  789 1742 -2.296 -13358.   
  790 1742 -2.282 -13334.   
 1862  733 -2.525 -13331.   
  787 1742 -2.290 -13303.   
  787 1758 -3.181 -13292.   
 1862  730 -3.010 -13288.   
  798 1735 -2.386 -13283.   
  768 1769 -2.039 -13260.   
  784 1735 -1.921 -13228.   
 1863  728 -1.232 -13224.   
  798 1734 -2.553 -13219.   
 1855  740 -1.993 -13197.   
  792 1733 -2.618 -13197.   
 1855  739 -1.346 -13171.   
 1863  727 -1.190 -13161.   
  767 1769 -2.437 -13147.   
  770 1769 -2.310 -13138.   
 1855  738 -1.230 -13134.   
 1861  731 -2.621 -13120.   
  786 1747 -3.118 -13080.   
  778 1767 -3.275 -13077.   
  776 1769 -2.284 -13068.   
 1854  736 -2.266 -13048.   
  786 1758 -2.175 -13020.   
 1863  719 -2.472 -13008.   
 1861  734 -2.241 -12996.   
  785 1762 -2.079 -12994.   
  766 1769 -2.550 -12982.   
  777 1769 -2.723 -12980.   
 1854  740 -1.477 -12975.   
 1853  740 -1.981 -12957.   
 1861  728 -1.575 -12925.   
 1854  739 -1.544 -12912.   
 1853  738 -1.333 -12895.   
 1853  739 -1.502 -12894.   
 1861  727 -1.081 -12890.   
  792 1731 -2.788 -12879.   
 1865  716 -2.100 -12859.   
  763 1769 -2.846 -12844.   
 1860  720 -3.289 -12810.   
  786 1766 -2.865 -12792.   
  778 1769 -2.941 -12792.   
  788 1751 -2.483 -12787.   
  784 1734 -2.343 -12780.   
  790 1736 -2.442 -12779.   
 1852  736 -2.542 -12776.   
  785 1755 -1.571 -12775.   
  784 1756 -2.757 -12764.   
 1860  732 -2.846 -12761.   
  784 1763 -2.748 -12742.   
  762 1769 -1.860 -12725.   
  769 1768 -1.364 -12685.   
  783 1768 -0.805 -12683.   
  782 1768 -0.810 -12673.   
  769 1770 -0.986 -12669.   
  768 1768 -1.957 -12659.   
 1852  738 -1.870 -12647.   
  768 1770 -1.564 -12646.   
 1860  734 -1.420 -12617.   
  769 1769 -1.992 -12598.   
  784 1754 -2.252 -12597.   
  767 1768 -1.263 -12592.   
  786 1760 -1.347 -12584.   
  767 1770 -1.965 -12579.   
  781 1768 -0.817 -12561.   
 1860  728 -1.293 -12549.   
  775 1760 -1.315 -12504.   
  779 1768 -0.845 -12491.   
  778 1768 -1.799 -12474.   
  765 1770 -1.548 -12459.   
  764 1770 -1.411 -12440.   
  765 1768 -0.920 -12438.   
  777 1768 -1.722 -12436.   
  764 1768 -0.948 -12416.   
  790 1733 -2.463 -12384.   
 1851  740 -2.241 -12368.   
  765 1769 -1.921 -12354.   
  764 1769 -2.046 -12335.   
  789 1733 -2.241 -12334.   
  787 1733 -2.229 -12316.   
 1851  739 -2.294 -12311.   
 1850  736 -1.543 -12308.   
 1859  732 -3.449 -12271.   
 1859  731 -2.955 -12255.   
 1850  740 -1.462 -12239.   
 1849  737 -2.595 -12218.   
 1850  739 -1.559 -12217.   
 1850  738 -2.466 -12188.   
 1849  739 -2.423 -12187.   
  776 1768 -0.799 -12169.   
 1849  738 -1.658 -12156.   
 1848  737 -1.080 -12153.   
 1848  740 -3.295 -12145.   
  761 1770 -1.410 -12129.   
 1858  734 -1.284 -12127.   
  761 1768 -0.954 -12120.   
 1848  738 -1.587 -12094.   
 1859  729 -1.166 -12090.   
  785 1758 -1.023 -12090.   
 1858  728 -1.343 -12085.   
 1859  727 -1.835 -12041.   
  787 1731 -2.840 -12039.   
  761 1769 -1.807 -12030.   
 1865  709 -2.261 -11998.   
 1862  691 -2.679 -11997.   
  783 1755 -2.597 -11970.   
 1857  729 -1.213 -11953.   
 1857  728 -2.607 -11941.   
 1855  735 -2.707 -11940.   
  767 1755 -3.015 -11919.   
  775 1735 -3.322 -11905.   
  784 1742 -2.528 -11892.   
 1857  727 -1.823 -11890.   
  784 1758 -2.489 -11883.   
 1861  716 -2.540 -11861.   
  773 1768 -1.981 -11852.   
 1865  700 -1.804 -11826.   
  786 1740 -3.177 -11811.   
  779 1755 -2.741 -11804.   
  760 1769 -3.768 -11795.   
  785 1760 -1.105 -11788.   
 1857  719 -3.404 -11765.   
 1861  710 -3.072 -11741.   
  774 1735 -2.404 -11738.   
 1854  735 -2.569 -11724.   
 1864  703 -3.166 -11710.   
 1853  735 -2.709 -11709.   
  784 1766 -3.420 -11693.   
  772 1764 -3.498 -11669.   
  762 1755 -3.193 -11661.   
  785 1741 -0.499 -11643.   
  785 1751 -1.788 -11581.   
  776 1755 -2.995 -11558.   
 1860  714 -3.030 -11535.   
 1864  700 -1.922 -11522.   
 1860  712 -2.845 -11511.   
  775 1763 -3.011 -11510.   
 1852  735 -3.076 -11504.   
  771 1769 -2.264 -11483.   
  771 1766 -1.896 -11459.   
  788 1737 -3.348 -11444.   
 1860  710 -2.340 -11430.   
  784 1736 -3.198 -11416.   
  784 1751 -3.072 -11412.   
  787 1734 -3.182 -11408.   
  775 1754 -2.362 -11391.   
 1863  706 -3.171 -11378.   
 1863  705 -3.484 -11360.   
 1863  703 -3.004 -11352.   
 1863  704 -2.685 -11348.   
  769 1755 -3.097 -11335.   
 1863  709 -1.391 -11328.   
  768 1755 -2.878 -11317.   
 1775  854 -5.372 -11295.   
  785 1748 -2.176 -11273.   
 1862  684 -2.816 -11270.   
  783 1758 -3.802 -11252.   
 1851  735 -2.868 -11227.   
  771 1767 -2.322 -11224.   
  773 1755 -3.275 -11220.   
 1854  734 -1.932 -11184.   
 1865  692 -3.084 -11165.   
 1855  732 -2.253 -11155.   
 1850  735 -2.290 -11150.   
 1863  700 -1.360 -11145.   
 1855  731 -1.793 -11142.   
 1855  730 -1.591 -11127.   
 1849  735 -2.325 -11126.   
  783 1760 -2.241 -11097.   
  770 1764 -1.318 -11094.   
  782 1760 -2.261 -11094.   
  769 1766 -1.312 -11088.   
  783 1764 -1.511 -11087.   
  782 1764 -1.374 -11084.   
  783 1766 -1.795 -11082.   
  768 1766 -1.910 -11071.   
  768 1764 -1.437 -11070.   
  768 1760 -2.924 -11049.   
 1848  735 -2.259 -11046.   
 1859  710 -2.463 -11033.   
 1854  720 -2.345 -11027.   
  767 1764 -1.341 -11020.   
  767 1767 -2.256 -11010.   
 1855  729 -3.057 -11005.   
  781 1760 -2.061 -10999.   
 1854  732 -1.849 -10991.   
  781 1764 -1.480 -10989.   
  771 1768 -0.907 -10985.   
  781 1766 -1.975 -10984.   
 1854  731 -1.838 -10970.   
 1853  731 -1.916 -10957.   
 1853  730 -1.701 -10955.   
 1861  700 -1.323 -10950.   
  779 1764 -1.333 -10947.   
  778 1764 -1.284 -10938.   
 1857  710 -2.533 -10920.   
  766 1766 -1.356 -10910.   
  777 1764 -1.296 -10904.   
  765 1764 -1.831 -10903.   
  766 1764 -2.128 -10902.   
  765 1766 -1.433 -10902.   
  764 1764 -1.430 -10893.   
  763 1764 -1.285 -10890.   
  764 1767 -2.024 -10876.   
  784 1740 -3.566 -10868.   
 1860  703 -2.789 -10867.   
 1860  704 -2.994 -10863.   
  763 1760 -3.556 -10862.   
 1855  719 -3.817 -10857.   
  775 1758 -3.836 -10854.   
 1860  709 -2.696 -10845.   
  775 1747 -3.598 -10844.   
 1854  728 -2.562 -10833.   
 1852  720 -2.957 -10832.   
 1853  728 -2.896 -10820.   
  775 1742 -2.593 -10812.   
  762 1766 -3.262 -10806.   
  762 1764 -2.783 -10798.   
 1852  732 -2.435 -10797.   
 1853  727 -3.107 -10796.   
  785 1754 -1.676 -10794.   
 1852  731 -2.413 -10777.   
 1852  730 -2.263 -10776.   
 1865  691 -2.085 -10765.   
  776 1764 -1.284 -10740.   
  776 1760 -2.758 -10726.   
 1860  700 -1.437 -10692.   
 1852  729 -3.642 -10669.   
  762 1760 -3.087 -10663.   
  772 1756 -3.736 -10658.   
  761 1766 -1.924 -10656.   
  761 1764 -1.402 -10654.   
 1852  728 -2.878 -10645.   
 1852  727 -2.659 -10621.   
 1846  736 -3.666 -10598.   
 1855  718 -4.065 -10597.   
 1863  692 -2.340 -10583.   
  761 1760 -3.233 -10562.   
 1851  732 -2.618 -10552.   
 1846  740 -2.879 -10550.   
 1855  717 -2.156 -10546.   
 1851  731 -2.769 -10533.   
 1864  691 -2.192 -10513.   
 1846  739 -3.138 -10508.   
  786 1736 -3.177 -10502.   
 1850  720 -1.959 -10493.   
 1845  736 -2.970 -10491.   
  788 1733 -3.029 -10484.   
  771 1762 -2.131 -10479.   
 1850  732 -1.816 -10463.   
 1850  731 -1.947 -10452.   
 1862  678 -3.267 -10452.   
  773 1764 -2.518 -10448.   
 1849  733 -1.488 -10443.   
 1845  740 -2.873 -10441.   
 1849  731 -2.751 -10430.   
 1849  730 -2.045 -10417.   
 1861  692 -2.538 -10414.   
 1848  733 -1.475 -10395.   
 1853  717 -3.047 -10390.   
 1848  731 -2.825 -10374.   
 1848  730 -1.948 -10372.   
 1859  700 -1.452 -10351.   
 1858  700 -1.373 -10345.   
  784 1737 -3.048 -10305.   
 1848  729 -3.044 -10264.   
  785 1742 -1.233 -10248.   
 1857  700 -1.476 -10245.   
 1843  740 -3.152 -10241.   
 1852  717 -3.017 -10228.   
 1855  716 -3.189 -10212.   
 1855  714 -2.514 -10206.   
 1863  691 -1.596 -10205.   
 1855  712 -2.049 -10199.   
 1855  691 -1.874 -10191.   
  770 1756 -1.730 -10176.   
  770 1754 -2.334 -10175.   
  769 1762 -2.227 -10174.   
  783 1756 -1.645 -10169.   
  782 1756 -1.628 -10168.   
  769 1756 -1.810 -10168.   
  768 1754 -2.285 -10157.   
  768 1756 -1.769 -10156.   
 1842  740 -3.368 -10125.   
  767 1756 -1.914 -10114.   
  767 1754 -1.926 -10114.   
 1842  739 -3.051 -10110.   
  785 1732 -1.866 -10096.   
  781 1754 -2.505 -10093.   
  781 1756 -1.669 -10088.   
 1842  738 -2.980 -10088.   
  780 1756 -2.707 -10080.   
 1854  714 -2.159 -10069.   
 1853  716 -2.331 -10065.   
  779 1756 -1.692 -10052.   
 1854  712 -2.170 -10051.   
 1853  711 -2.092 -10045.   
 1861  691 -1.595 -10043.   
  778 1756 -1.622 -10043.   
 1853  712 -2.155 -10040.   
  766 1762 -1.702 -10019.   
  766 1756 -2.491 -10015.   
  777 1756 -1.622 -10014.   
  765 1762 -1.729 -10014.   
  763 1756 -1.630 -10002.   
  764 1756 -1.765 -9999.9   
  764 1754 -2.304 -9988.9   
 1853  710 -2.807 -9977.9   
  775 1731 -3.392 -9961.8   
 1864  684 -2.398 -9951.9   
  762 1762 -3.624 -9930.4   
  771 1747 -2.034 -9927.0   
  762 1756 -3.123 -9926.4   
 1850  717 -2.592 -9925.6   
 1852  715 -3.356 -9921.2   
 1852  716 -2.669 -9913.1   
 1848  718 -2.822 -9907.7   
 1852  714 -2.664 -9907.3   
 1849  717 -2.368 -9906.2   
 1852  711 -2.651 -9893.8   
 1852  712 -2.726 -9888.6   
  771 1758 -1.497 -9882.9   
  785 1736 -1.859 -9879.3   
  776 1754 -2.120 -9876.7   
  776 1756 -1.779 -9874.2   
 1848  717 -3.227 -9863.7   
 1859  692 -2.555 -9852.9   
 1858  692 -2.434 -9840.9   
 1852  710 -2.827 -9828.6   
  778 1735 -3.783 -9828.3   
 1860  691 -1.734 -9820.7   
  761 1756 -1.777 -9800.9   
  761 1762 -2.335 -9800.2   
  782 1737 -3.448 -9797.2   
  761 1754 -2.474 -9787.7   
  771 1764 -1.577 -9768.0   
  778 1734 -3.689 -9749.2   
 1857  692 -2.510 -9745.6   
 1855  685 -2.859 -9706.9   
 1851  714 -2.887 -9699.7   
 1851  712 -2.939 -9682.9   
  771 1760 -1.830 -9679.8   
 1863  684 -1.807 -9679.7   
 1841  736 -3.240 -9673.1   
 1855  684 -1.807 -9666.6   
  770 1747 -1.900 -9656.9   
  769 1747 -2.410 -9653.0   
  769 1759 -2.036 -9652.1   
  783 1747 -1.874 -9651.5   
  782 1747 -1.887 -9649.4   
  768 1742 -3.394 -9641.1   
  768 1747 -3.334 -9639.9   
  768 1759 -1.918 -9639.5   
 1850  715 -2.253 -9636.6   
 1841  740 -3.196 -9630.7   
 1850  714 -2.152 -9623.4   
 1850  712 -2.204 -9617.6   
 1841  739 -3.246 -9616.8   
 1849  691 -1.696 -9606.4   
 1849  713 -3.139 -9603.7   
  767 1747 -1.969 -9600.2   
  767 1759 -2.995 -9600.0   
 1849  712 -3.070 -9599.4   
  781 1747 -1.914 -9578.0   
 1853  706 -2.764 -9564.6   
 1848  713 -1.780 -9563.7   
 1854  704 -2.353 -9553.1   
 1848  711 -2.258 -9552.6   
 1848  691 -3.004 -9552.2   
  778 1747 -1.928 -9536.1   
 1853  703 -1.974 -9535.4   
 1861  684 -1.803 -9532.6   
 1859  691 -1.739 -9529.3   
  766 1759 -1.942 -9514.4   
  777 1747 -1.938 -9509.8   
  765 1747 -2.041 -9509.1   
  764 1759 -2.515 -9499.9   
  763 1747 -1.946 -9499.4   
  764 1747 -2.058 -9498.6   
  765 1758 -3.076 -9471.7   
  764 1758 -4.011 -9467.2   
 1843  735 -3.143 -9465.3   
 1857  691 -1.782 -9439.5   
 1854  700 -2.372 -9420.6   
 1852  703 -2.568 -9398.9   
  776 1742 -2.636 -9385.8   
  776 1747 -2.021 -9384.6   
 1860  685 -2.818 -9365.6   
  770 1741 -2.018 -9331.4   
 1860  684 -2.004 -9330.5   
  769 1741 -2.531 -9327.5   
  769 1752 -2.312 -9327.0   
  783 1741 -2.073 -9326.4   
  782 1741 -1.988 -9324.5   
  761 1747 -2.168 -9319.0   
  761 1759 -2.564 -9317.8   
  768 1752 -2.008 -9315.1   
  761 1742 -2.628 -9309.3   
 1840  742 -3.251 -9302.4   
  767 1752 -2.896 -9280.0   
  767 1736 -2.930 -9279.7   
  767 1741 -1.921 -9278.4   
 1852  700 -2.760 -9268.0   
  781 1741 -1.903 -9257.6   
  781 1736 -3.073 -9251.5   
  779 1741 -1.839 -9225.9   
  778 1736 -2.988 -9220.9   
  778 1741 -1.810 -9217.9   
  766 1751 -3.023 -9201.4   
  766 1752 -1.818 -9197.5   
  765 1752 -2.450 -9194.3   
  777 1741 -1.747 -9193.4   
  765 1741 -1.878 -9193.2   
  764 1752 -2.406 -9184.1   
  763 1741 -1.725 -9183.6   
  763 1736 -2.865 -9183.3   
  764 1741 -1.873 -9183.2   
 1850  685 -2.799 -9178.5   
  764 1736 -2.939 -9168.0   
 1849  685 -2.681 -9161.9   
 1850  705 -2.557 -9158.3   
 1850  684 -2.179 -9150.2   
 1845  720 -3.381 -9143.5   
 1850  703 -3.097 -9143.1   
 1849  684 -1.943 -9134.3   
 1849  703 -3.316 -9132.9   
  762 1741 -3.134 -9121.4   
 1845  732 -3.226 -9120.6   
 1848  706 -2.607 -9117.1   
 1848  703 -1.902 -9096.7   
  776 1741 -1.595 -9076.2   
 1859  684 -1.988 -9065.9   
 1858  684 -1.973 -9062.8   
 1850  700 -3.913 -9048.6   
  771 1756 -1.953 -9047.6   
  781 1733 -3.493 -9028.9   
  761 1741 -1.620 -9014.4   
  761 1752 -1.934 -9013.7   
 1857  685 -2.774 -9011.1   
  761 1736 -2.815 -9009.6   
  778 1733 -3.323 -9005.4   
  771 1754 -2.301 -8999.5   
 1857  684 -2.049 -8983.4   
  770 1731 -4.052 -8950.8   
 1843  731 -3.330 -8950.1   
 1843  730 -3.400 -8949.1   
 1844  734 -3.518 -8947.0   
 1854  690 -3.477 -8945.2   
  769 1740 -3.957 -8944.2   
  782 1731 -3.940 -8940.9   
 1853  690 -3.517 -8936.4   
 1861  677 -3.950 -8935.7   
  768 1740 -3.941 -8933.0   
 1841  735 -3.564 -8926.0   
  774 1741 -3.801 -8920.3   
 1844  728 -3.501 -8913.0   
 1856  691 -4.000 -8911.7   
 1854  691 -2.556 -8845.6   
 1843  727 -3.819 -8842.4   
  766 1740 -3.589 -8833.9   
  777 1731 -3.539 -8829.1   
 1850  680 -2.981 -8825.0   
 1844  719 -3.065 -8824.9   
 1850  696 -3.622 -8822.3   
  763 1731 -3.512 -8818.8   
  764 1731 -3.573 -8818.1   
 1846  718 -3.469 -8817.8   
 1852  690 -3.986 -8816.4   
 1849  680 -2.883 -8809.7   
  782 1735 -3.120 -8774.1   
 1848  696 -2.865 -8773.3   
 1843  719 -3.337 -8771.7   
 1859  680 -2.980 -8749.2   
  782 1734 -3.116 -8745.8   
 1858  680 -2.843 -8742.8   
 1853  691 -3.441 -8724.3   
  772 1742 -3.844 -8713.0   
 1845  717 -3.353 -8709.4   
  770 1755 -2.811 -8706.8   
 1840  738 -3.360 -8678.7   
 1857  680 -2.854 -8667.6   
  761 1731 -3.366 -8660.9   
  770 1735 -3.058 -8658.9   
  771 1742 -1.742 -8616.7   
 1849  677 -3.010 -8578.0   
  768 1737 -2.761 -8549.2   
  771 1732 -2.230 -8508.6   
 1841  732 -3.557 -8495.9   
 1844  709 -2.802 -8489.3   
 1842  717 -3.773 -8488.5   
 1841  731 -3.554 -8488.4   
 1838  740 -3.644 -8487.5   
 1846  710 -2.889 -8486.8   
  759 1772 -2.714 -8483.8   
 1845  714 -3.572 -8475.9   
 1857  677 -2.989 -8444.8   
  781 1734 -4.162 -8441.7   
 1844  714 -3.980 -8389.3   
  758 1772 -1.920 -8376.8   
  771 1741 -1.032 -8372.3   
 1833  741 -2.722 -8366.6   
  771 1736 -1.961 -8354.5   
 1844  710 -2.938 -8340.7   
 1843  712 -3.747 -8328.6   
  766 1742 -4.052 -8322.8   
 1843  710 -3.945 -8293.1   
  764 1742 -4.101 -8267.3   
 1842  714 -4.051 -8266.5   
 1842  712 -3.791 -8262.3   
 1842  691 -3.627 -8256.8   
 1847  700 -3.152 -8251.4   
  765 1732 -3.785 -8202.0   
 1846  709 -2.505 -8160.0   
 1841  717 -2.940 -8138.0   
 1837  740 -3.790 -8102.5   
 1854  680 -3.432 -8079.7   
 1837  739 -3.955 -8079.4   
 1837  738 -4.311 -8078.7   
 1846  700 -3.151 -8076.9   
  771 1740 -2.840 -8060.7   
 1839  735 -2.441 -8049.2   
 1844  706 -3.225 -8043.3   
 1836  737 -2.880 -8036.7   
 1841  716 -3.160 -7937.5   
  758 1771 -2.540 -7899.3   
 1833  737 -3.506 -7893.5   
 1832  740 -3.333 -7873.5   
 1852  677 -3.711 -7788.9   
 1826  741 -3.593 -7687.1   
 1842  680 -3.930 -7670.4   
 1845  677 -3.743 -7665.8   
  758 1770 -4.209 -7641.2   
 1840  719 -1.427 -7621.2   
 1837  735 -2.156 -7610.4   
 1840  718 -2.711 -7492.2   
 1838  719 -1.573 -7452.8   
 1830  735 -3.149 -7346.8   
 1838  718 -2.499 -7329.3   
 1840  716 -1.041 -7297.8   
 1840  710 -1.728 -7251.9   
 1839  716 -1.523 -7225.1   
 1839  711 -3.073 -7214.9   
 1839  691 -3.772 -7214.6   
 1825  737 -3.473 -7197.2   
 1837  719 -1.892 -7155.4   
 1835  719 -1.531 -7109.7   
 1838  710 -1.541 -7099.2   
  757 1771 -2.330 -7023.3   
 1837  717 -2.211 -7019.3   
 1840  709 -1.500 -7011.9   
  759 1769 -2.134 -7011.4   
 1820  740 -2.617 -6999.7   
 1835  718 -2.210 -6997.3   
 1835  717 -2.356 -6975.3   
  756 1769 -2.153 -6973.4   
 1840  700 -2.986 -6953.0   
 1819  737 -2.865 -6945.0   
  758 1767 -2.629 -6940.2   
  757 1770 -2.794 -6939.9   
  757 1769 -2.027 -6907.2   
  759 1768 -2.180 -6899.6   
 1837  716 -2.205 -6869.6   
 1838  709 -0.832 -6869.1   
  758 1768 -2.321 -6847.9   
 1835  716 -2.368 -6827.4   
  758 1769 -2.089 -6817.2   
 1831  719 -2.005 -6800.6   
 1835  710 -2.442 -6787.3   
 1829  718 -3.087 -6741.7   
 1831  709 -3.036 -6731.2   
  759 1734 -2.568 -6724.8   
 1829  717 -3.137 -6721.3   
  759 1756 -3.229 -6720.4   
 1840  692 -3.292 -6719.2   
 1828  719 -3.177 -6717.8   
 1832  716 -3.294 -6704.3   
  759 1755 -2.180 -6698.8   
  758 1734 -2.922 -6657.4   
 1826  733 -3.679 -6651.6   
 1821  735 -3.175 -6643.7   
  756 1755 -2.287 -6641.2   
 1828  718 -3.264 -6617.4   
 1835  709 -2.199 -6576.6   
 1829  710 -3.586 -6546.5   
 1835  700 -3.864 -6520.0   
  757 1764 -3.490 -6431.2   
 1826  717 -3.138 -6429.6   
 1828  710 -3.551 -6429.3   
  759 1760 -2.044 -6383.9   
  757 1767 -2.478 -6356.7   
 1839  678 -3.372 -6331.6   
  758 1760 -2.037 -6316.9   
  756 1760 -2.221 -6305.3   
 1821  719 -2.350 -6294.3   
  757 1768 -2.757 -6293.2   
  756 1768 -2.488 -6221.1   
 1820  717 -2.473 -6176.3   
 1824  710 -3.430 -6152.0   
  756 1735 -3.550 -6149.2   
 1840  678 -3.488 -6138.1   
  759 1754 -2.338 -6075.0   
 1821  716 -2.798 -6072.1   
  757 1754 -2.863 -6065.8   
  757 1755 -2.527 -6061.5   
 1820  716 -3.005 -6060.1   
 1836  678 -3.639 -6048.0   
 1822  710 -2.927 -6041.3   
  758 1756 -3.112 -6040.9   
 1821  710 -3.067 -6040.3   
  758 1754 -2.506 -6028.4   
 1839  677 -2.881 -6027.1   
 1835  678 -3.372 -6024.1   
  756 1754 -2.221 -6009.2   
 1828  678 -3.276 -5986.5   
 1824  709 -4.186 -5978.4   
 1838  677 -3.362 -5966.7   
 1833  678 -3.144 -5966.5   
  759 1737 -3.460 -5960.1   
 1826  680 -4.811 -5949.0   
 1827  692 -4.398 -5938.9   
 1824  700 -4.332 -5935.6   
 1836  689 -4.960 -5934.3   
 1833  684 -4.128 -5928.9   
  758 1737 -3.511 -5907.1   
  757 1758 -2.704 -5902.9   
  759 1742 -2.696 -5884.5   
 1822  709 -2.105 -5873.8   
  758 1742 -2.664 -5848.9   
 1826  678 -2.814 -5847.8   
  759 1732 -3.312 -5847.2   
 1835  680 -2.774 -5847.0   
  756 1742 -2.649 -5844.1   
  756 1758 -3.466 -5841.9   
 1825  678 -2.743 -5790.5   
  757 1751 -2.856 -5778.8   
 1837  677 -2.574 -5777.7   
  759 1736 -2.823 -5773.8   
 1835  677 -2.380 -5747.8   
 1833  682 -3.906 -5734.8   
  758 1736 -2.823 -5729.7   
  756 1736 -2.790 -5726.6   
  756 1751 -3.719 -5725.6   
 1830  680 -3.619 -5719.4   
  758 1733 -2.476 -5649.1   
  756 1733 -2.458 -5645.3   
  758 1731 -3.249 -5587.4   
  756 1731 -3.147 -5586.4   
 1829  677 -2.906 -5574.2   
 1821  691 -4.861 -5558.9   
 1817  719 -3.833 -5537.9   
 1828  677 -3.251 -5489.0   
  756 1734 -3.107 -5446.7   
  758 1755 -2.308 -5437.2   
 1816  717 -3.877 -5419.7   
  757 1732 -3.210 -5383.6   
 1825  682 -4.174 -5358.2   
 1816  716 -4.409 -5330.0   
  757 1736 -3.463 -5329.5   
 1816  710 -6.187 -5305.5   
 1776  677 -5.324 -5300.7   
 1818  706 -6.372 -5298.4   
 1821  680 -2.919 -5284.1   
  757 1733 -2.886 -5256.8   
 1821  677 -2.634 -5202.9   
 1815  728 -2.889 -4580.9   
 1815  727 -2.693 -4576.5   
 1812  742 -2.534 -4543.7   
 1811  742 -1.958 -4432.4   
 1814  729 -2.804 -4389.9   
 1809  737 -2.814 -4272.8   
 1809  739 -2.719 -4269.1   
 1809  738 -2.726 -4265.2   
 1814  716 -3.650 -4258.0   
 1814  713 -3.770 -4256.6   
 1813  734 -2.800 -4213.6   
 1808  739 -2.841 -4199.4   
 1807  740 -2.085 -4179.6   
 1807  739 -2.067 -4173.0   
 1806  738 -3.258 -4171.3   
 1813  728 -2.148 -4165.1   
 1813  727 -2.261 -4158.8   
 1815  691 -2.878 -4157.4   
 1813  719 -2.166 -4143.4   
 1812  730 -2.959 -4140.1   
 1814  700 -3.096 -4137.5   
 1809  735 -3.314 -4131.0   
 1812  729 -2.671 -4124.3   
 1812  719 -2.041 -4101.7   
 1807  736 -2.315 -4078.0   
 1815  684 -2.953 -4067.4   
 1808  735 -2.746 -4065.7   
 1804  742 -2.779 -4043.5   
 1811  729 -2.287 -4032.4   
 1811  719 -1.853 -4010.8   
 1812  716 -1.477 -4006.1   
 1815  680 -2.195 -4003.3   
 1809  719 -2.826 -3993.2   
 1812  710 -2.459 -3992.3   
 1813  709 -1.819 -3956.5   
 1808  729 -2.370 -3951.5   
 1807  734 -2.167 -3935.9   
 1807  728 -1.946 -3929.3   
 1804  740 -3.249 -3926.7   
 1807  727 -2.324 -3925.8   
 1812  706 -3.029 -3924.4   
 1804  738 -2.432 -3921.0   
 1804  739 -2.374 -3920.9   
 1811  716 -2.283 -3919.4   
 1812  709 -2.279 -3918.4   
 1811  711 -3.034 -3916.4   
 1799  742 -1.089 -3913.4   
 1811  710 -2.661 -3906.1   
 1809  716 -2.736 -3902.5   
 1803  737 -2.884 -3864.8   
 1796  742 -2.945 -3844.7   
 1808  716 -2.360 -3844.2   
 1806  691 -3.048 -3823.1   
 1807  712 -2.560 -3821.5   
 1809  684 -2.930 -3820.9   
 1811  700 -2.420 -3817.7   
 1807  710 -3.040 -3812.5   
 1813  691 -2.487 -3810.0   
 1804  735 -3.275 -3807.0   
 1795  742 -2.820 -3804.5   
 1805  729 -3.150 -3755.9   
 1805  719 -2.427 -3737.2   
 1807  700 -1.952 -3730.1   
 1804  730 -2.890 -3720.7   
 1804  728 -2.074 -3705.0   
 1804  727 -1.574 -3702.1   
 1795  740 -2.643 -3700.9   
 1811  691 -2.650 -3700.0   
 1805  717 -3.090 -3699.7   
 1795  738 -1.722 -3695.9   
 1795  739 -1.901 -3695.8   
 1794  737 -2.137 -3693.7   
 1794  740 -2.794 -3693.0   
 1794  739 -2.405 -3690.9   
 1794  738 -1.960 -3688.0   
 1793  740 -2.380 -3670.8   
 1793  739 -2.266 -3668.7   
 1793  738 -1.957 -3665.9   
 1805  716 -1.758 -3657.7   
 1803  729 -1.539 -3651.1   
 1806  678 -3.112 -3651.1   
 1792  740 -2.066 -3648.5   
 1803  727 -2.083 -3646.7   
 1791  739 -2.834 -3643.6   
 1792  739 -2.144 -3643.5   
 1791  738 -2.103 -3640.8   
 1791  737 -2.692 -3635.4   
 1800  728 -1.840 -3633.8   
 1800  727 -1.873 -3630.8   
 1790  737 -1.665 -3625.1   
 1790  738 -2.037 -3619.9   
 1812  677 -2.407 -3608.4   
 1804  710 -2.433 -3600.9   
 1799  729 -1.601 -3598.2   
 1799  727 -2.139 -3592.5   
 1795  735 -2.461 -3591.6   
 1789  738 -3.077 -3588.9   
 1794  735 -2.518 -3587.3   
 1789  737 -2.521 -3583.8   
 1799  719 -2.388 -3581.0   
 1808  684 -2.795 -3563.0   
 1803  710 -2.645 -3548.4   
 1799  717 -2.794 -3546.6   
 1797  734 -1.707 -3546.4   
 1807  684 -2.419 -3545.5   
 1797  728 -1.735 -3542.7   
 1791  735 -2.533 -3542.5   
 1811  677 -1.926 -3537.9   
 1786  736 -1.957 -3534.0   
 1786  740 -1.735 -3528.3   
 1804  700 -1.752 -3522.8   
 1785  737 -0.905 -3515.4   
 1798  719 -1.466 -3515.1   
 1798  709 -1.663 -3496.4   
 1796  718 -2.004 -3495.6   
 1796  719 -1.630 -3487.0   
 1794  719 -1.970 -3482.9   
 1800  709 -1.515 -3475.6   
 1803  700 -1.743 -3474.8   
 1798  710 -1.426 -3471.0   
 1791  733 -1.940 -3470.3   
 1793  719 -1.904 -3463.1   
 1790  733 -1.977 -3451.0   
 1787  735 -2.417 -3432.7   
 1799  700 -1.757 -3426.3   
 1794  716 -2.134 -3413.7   
 1781  737 -1.083 -3400.4   
 1779  737 -1.519 -3363.9   
 1795  703 -2.267 -3356.9   
 1788  717 -2.046 -3355.4   
 1790  716 -2.890 -3355.1   
 1790  713 -2.277 -3354.2   
 1790  711 -2.555 -3352.9   
 1788  719 -1.779 -3352.5   
 1794  703 -2.949 -3351.5   
 1794  684 -2.672 -3350.5   
 1787  719 -2.271 -3337.0   
 1788  716 -0.669 -3320.8   
 1780  735 -2.603 -3300.9   
 1792  700 -2.129 -3298.6   
 1790  703 -2.333 -3294.9   
 1801  689 -2.761 -3281.6   
 1787  716 -1.896 -3273.5   
 1786  715 -2.639 -3273.4   
 1799  684 -2.321 -3272.6   
 1786  714 -2.364 -3271.9   
 1786  712 -2.636 -3271.2   
 1782  718 -1.934 -3243.8   
 1782  719 -0.661 -3236.4   
 1784  710 -1.046 -3226.8   
 1780  719 -0.911 -3212.3   
 1777  737 -1.071 -3201.5   
 1782  710 -1.942 -3198.0   
 1786  680 -3.038 -3174.3   
 1796  678 -1.867 -3169.4   
 1791  678 -3.349 -3164.7   
 1792  684 -2.748 -3156.4   
 1795  680 -2.567 -3155.2   
 1780  716 -1.901 -3153.4   
 1798  678 -1.858 -3150.1   
 1780  710 -2.828 -3144.8   
 1785  678 -2.342 -3142.5   
 1795  677 -2.623 -3126.1   
 1789  678 -1.948 -3125.5   
 1793  678 -2.137 -3120.5   
 1792  680 -3.236 -3117.4   
 1790  678 -2.655 -3086.9   
 1778  712 -4.610 -3079.4   
 1786  678 -4.226 -3075.9   
 1790  677 -3.283 -3071.5   
 1781  678 -2.141 -3050.3   
 1783  678 -1.912 -3029.2   
 1787  678 -1.869 -3017.7   
 1780  678 -1.896 -2970.4   
 1778  678 -1.961 -2967.5   
 1782  678 -1.847 -2961.0   
 1784  678 -1.827 -2947.7   
 1780  680 -4.559 -2927.0   
 1777  680 -6.380 -2913.7   
 1777  678 -3.291 -2889.3   
  755 1769 -3.128 -2874.9   
 1777  682 -6.943 -2777.4   
  755 1764 -3.158 -2759.1   
  755 1767 -3.099 -2757.9   
  755 1760 -3.050 -2749.5   
  755 1763 -3.719 -2698.3   
  755 1753-10.429 -2683.5   
  755 1758 -3.746 -2660.6   
  755 1766 -3.862 -2648.0   
  755 1751 -3.151 -2635.1   
  755 1752 -3.378 -2634.8   
  755 1748 -3.315 -2617.2   
  755 1740 -3.425 -2604.1   
  755 1754 -3.194 -2593.3   
  755 1755 -3.994 -2582.4   
  755 1737 -2.551 -2569.6   
  755 1742 -3.203 -2557.8   
  755 1736 -2.977 -2534.4   
  755 1741 -3.346 -2534.1   
  755 1733 -3.130 -2517.8   
  755 1731 -3.229 -2505.7   
  753 1772 -1.755 -2495.2   
  755 1734 -2.578 -2489.3   
  754 1771 -1.370 -2453.2   
  752 1771 -2.643 -2428.9   
  753 1770 -3.409 -2411.1   
  751 1771 -1.587 -2378.0   
  754 1769 -0.979 -2370.6   
  753 1769 -0.604 -2366.5   
  753 1755 -1.292 -2357.0   
  752 1769 -0.598 -2355.3   
  752 1764 -2.211 -2339.8   
  753 1767 -2.177 -2336.7   
  752 1760 -1.056 -2335.2   
  752 1767 -2.028 -2329.9   
  753 1756 -1.131 -2303.2   
  750 1771 -0.699 -2298.0   
  752 1734 -1.453 -2297.1   
  752 1756 -1.392 -2296.6   
  753 1754 -0.489 -2296.2   
  752 1754 -0.696 -2291.2   
  750 1770 -1.406 -2289.0   
  750 1769 -0.705 -2285.4   
  754 1764 -2.615 -2281.0   
  753 1742 -1.523 -2274.2   
  752 1742 -1.621 -2266.7   
  753 1760 -1.312 -2261.5   
  752 1766 -2.063 -2259.4   
  753 1751 -1.908 -2253.8   
  751 1756 -2.576 -2250.3   
  752 1751 -2.675 -2247.5   
  751 1755 -1.381 -2243.8   
  754 1754 -1.454 -2236.4   
  752 1733 -2.207 -2236.2   
  753 1731 -2.730 -2233.3   
  753 1740 -2.642 -2232.7   
  750 1764 -2.594 -2230.8   
  752 1731 -2.466 -2226.9   
  750 1760 -1.788 -2226.6   
  751 1747 -1.901 -2223.9   
  751 1758 -0.379 -2221.7   
  750 1767 -1.566 -2221.7   
  750 1768 -1.766 -2213.9   
  754 1742 -1.119 -2211.9   
  752 1755 -1.397 -2211.5   
  751 1760 -0.714 -2211.2   
  751 1741  0.073 -2206.1   
  754 1732 -0.779 -2204.7   
  751 1751 -1.185 -2203.9   
  754 1741 -1.625 -2195.5   
  750 1734 -2.272 -2191.9   
  753 1732 -0.803 -2191.1   
  750 1755 -1.488 -2189.2   
  752 1732 -0.833 -2185.1   
  752 1736 -1.868 -2174.8   
  751 1754 -1.216 -2173.7   
  750 1747 -3.741 -2165.6   
  751 1742 -0.641 -2150.6   
  750 1751 -2.138 -2146.7   
  751 1732 -1.056 -2143.8   
  750 1748 -2.514 -2135.9   
  751 1736 -1.056 -2133.9   
  750 1740 -2.686 -2127.6   
  751 1733 -1.791 -2122.6   
  750 1754 -2.163 -2118.1   
  750 1737 -2.239 -2103.9   
  750 1742 -2.151 -2094.4   
  750 1732 -2.524 -2089.7   
  750 1736 -2.810 -2080.2   
  744 1775 -6.329 -2012.5   
  749 1773 -3.734 -1964.9   
  748 1773 -4.563 -1919.8   
  749 1772 -3.434 -1899.8   
  746 1773 -4.263 -1886.9   
  749 1771 -2.177 -1874.1   
  749 1770 -2.757 -1859.2   
  748 1772 -3.106 -1857.7   
  747 1772 -2.798 -1840.5   
  749 1769 -1.522 -1825.6   
  747 1771 -2.398 -1816.4   
  749 1767 -2.931 -1814.6   
  745 1772 -2.692 -1812.7   
  749 1768 -1.945 -1806.9   
  749 1734 -2.349 -1794.7   
  749 1756 -2.992 -1794.4   
  749 1755 -1.814 -1792.9   
  745 1771 -2.285 -1789.3   
  748 1764 -3.647 -1781.8   
  747 1769 -1.619 -1777.3   
  748 1769 -2.757 -1776.1   
  745 1769 -1.913 -1773.6   
  748 1768 -3.260 -1769.9   
  749 1760 -2.026 -1767.6   
  748 1735 -1.327 -1765.3   
  749 1751 -2.570 -1764.3   
  745 1755 -1.769 -1761.2   
  746 1755 -2.137 -1760.1   
  748 1734 -1.547 -1757.1   
  744 1770 -3.128 -1754.7   
  747 1768 -2.100 -1754.4   
  746 1764 -2.984 -1754.3   
  746 1767 -2.776 -1753.8   
  748 1754 -2.542 -1752.7   
  746 1760 -2.402 -1750.4   
  746 1769 -1.924 -1748.6   
  746 1768 -1.940 -1742.8   
  747 1734 -2.217 -1741.7   
  744 1755 -1.735 -1740.5   
  749 1737 -2.789 -1735.3   
  745 1767 -2.246 -1735.0   
  743 1755 -1.616 -1734.3   
  748 1760 -2.453 -1732.4   
  749 1742 -2.569 -1728.9   
  745 1768 -2.305 -1728.9   
  744 1769 -1.886 -1728.6   
  749 1732 -2.511 -1725.6   
  745 1735 -2.732 -1724.6   
  749 1736 -2.744 -1719.2   
  747 1760 -1.945 -1717.5   
  745 1756 -3.263 -1716.5   
  744 1760 -2.016 -1716.5   
  746 1758 -3.316 -1712.7   
  745 1754 -2.218 -1712.6   
  749 1733 -3.032 -1711.9   
  743 1760 -2.181 -1710.5   
  744 1768 -1.932 -1710.2   
  749 1731 -3.544 -1706.4   
  749 1740 -3.203 -1706.4   
  744 1735 -2.864 -1704.8   
  746 1751 -3.888 -1702.6   
  745 1758 -2.562 -1699.6   
  747 1754 -2.426 -1695.4   
  748 1742 -3.174 -1695.0   
  744 1754 -1.937 -1693.8   
  745 1760 -2.255 -1693.7   
  743 1763 -3.755 -1690.6   
  743 1756 -3.783 -1690.3   
  745 1741 -3.245 -1690.2   
  745 1752 -3.666 -1690.1   
  745 1751 -2.981 -1689.6   
  743 1754 -3.046 -1688.0   
  747 1737 -2.752 -1685.7   
  745 1748 -2.615 -1682.4   
  747 1747 -3.601 -1681.3   
  744 1747 -3.662 -1681.2   
  746 1737 -1.625 -1680.6   
  744 1742 -2.366 -1680.5   
  747 1742 -2.397 -1679.6   
  743 1742 -3.086 -1674.7   
  747 1736 -2.614 -1671.2   
  744 1741 -3.413 -1671.1   
  747 1741 -3.151 -1671.1   
  744 1736 -2.517 -1670.6   
  744 1751 -3.366 -1670.5   
  746 1742 -2.527 -1668.9   
  743 1736 -3.861 -1664.9   
  747 1733 -2.142 -1664.0   
  744 1733 -2.110 -1663.6   
  745 1737 -2.506 -1663.1   
  748 1755 -1.758 -1658.9   
  744 1731 -2.963 -1658.5   
  747 1731 -3.094 -1658.4   
  744 1740 -3.794 -1658.4   
  745 1742 -2.461 -1656.4   
  744 1756 -3.951 -1654.0   
  745 1732 -3.112 -1653.4   
  746 1733 -3.705 -1653.0   
  745 1736 -2.822 -1648.3   
  746 1731 -3.917 -1648.0   
  744 1734 -2.445 -1645.9   
  747 1755 -1.668 -1645.1   
  744 1737 -2.636 -1644.7   
  743 1737 -2.796 -1643.8   
  743 1735 -1.843 -1642.6   
  746 1735 -1.967 -1642.2   
  745 1733 -2.263 -1641.3   
  746 1734 -2.162 -1641.2   
  743 1734 -2.178 -1640.4   
  745 1731 -3.149 -1635.8   
  744 1739 -9.131 -1624.9   
  745 1734 -2.363 -1620.3   
  743 1927 -3.337 1697.9    
  744 1927 -2.729 1703.8    
  743 1923 -3.812 1708.4    
  744 1923 -3.485 1714.4    
  745 1929 -3.046 1718.3    
  745 1928 -3.277 1719.2    
  743 1922 -3.665 1720.1    
  745 1927 -3.370 1723.7    
  745 1926 -3.138 1724.5    
  744 1922 -3.182 1726.2    
  746 1928 -2.926 1732.7    
  743 1914 -1.610 1739.0    
  744 1914 -2.012 1745.2    
  743 1913 -1.614 1746.7    
  743 1908 -2.503 1748.1    
  746 1923 -2.111 1748.1    
  747 1926 -2.146 1749.7    
  743 1907 -3.353 1754.9    
  748 1929 -2.473 1758.7    
  748 1928 -2.124 1759.7    
  746 1922 -1.650 1760.5    
  745 1918 -1.792 1764.5    
  748 1926 -2.736 1765.2    
  744 1904 -2.056 1774.4    
  743 1902 -2.487 1775.0    
  744 1903 -2.776 1775.5    
  743 1901 -2.848 1777.4    
  743 1898 -2.395 1778.0    
  743 1894 -2.711 1778.6    
  746 1914 -3.652 1780.2    
  744 1902 -2.922 1781.4    
  745 1906 -3.557 1783.8    
  744 1901 -3.162 1783.9    
  744 1899 -3.472 1784.3    
  743 1890 -4.006 1786.4    
  747 1918 -2.018 1790.9    
  745 1904 -2.255 1795.9    
  749 1929 -2.640 1796.4    
  746 1907 -2.849 1796.9    
  745 1903 -2.788 1797.1    
  749 1928 -2.556 1797.4    
  746 1906 -2.924 1798.3    
  746 1905 -2.645 1798.5    
  749 1927 -2.181 1802.2    
  749 1926 -1.934 1803.2    
  745 1901 -3.101 1805.6    
  748 1917 -2.821 1807.3    
  748 1916 -3.134 1808.0    
  747 1906 -3.373 1810.7    
  745 1890 -2.563 1814.9    
  745 1889 -2.520 1816.1    
  747 1904 -2.798 1823.2    
  743 1884 -4.469 1826.7    
  746 1891 -3.910 1827.5    
  746 1890 -4.432 1829.9    
  743 1872 -3.374 1831.3    
  743 1870 -3.690 1833.4    
  744 1872 -2.428 1838.2    
  744 1871 -3.168 1840.1    
  747 1891 -2.390 1840.3    
  744 1870 -2.306 1840.3    
  747 1889 -3.300 1844.0    
  749 1918 -2.103 1847.0    
  744 1866 -3.938 1848.3    
  748 1897 -5.774 1851.1    
  748 1892 -6.147 1851.9    
  745 1881 -5.307 1856.6    
  745 1880 -6.313 1857.0    
  745 1879 -5.455 1857.1    
  748 1889 -3.624 1861.3    
  745 1871 -2.768 1863.3    
  745 1868 -2.725 1865.5    
  749 1907 -2.653 1866.6    
  749 1906 -2.990 1868.1    
  745 1866 -3.435 1871.6    
  746 1872 -3.471 1877.1    
  746 1871 -3.329 1879.1    
  749 1904 -2.015 1881.4    
  749 1903 -1.788 1882.7    
  749 1899 -3.856 1892.5    
  749 1896 -4.146 1892.9    
  747 1869 -2.886 1894.6    
  747 1866 -3.645 1901.3    
  749 1890 -3.103 1902.2    
  749 1889 -3.067 1903.6    
  749 1888 -3.881 1905.8    
  748 1872 -4.418 1908.8    
  748 1871 -3.233 1910.9    
  748 1869 -3.756 1912.8    
  749 1881 -5.041 1948.1    
  749 1880 -5.481 1948.6    
  749 1879 -5.178 1948.6    
  749 1876 -5.731 1949.2    
  744 1865 -4.064 1955.5    
  749 1871 -3.739 1955.5    
  743 1864 -3.011 1956.0    
  749 1869 -3.815 1957.5    
  749 1868 -2.997 1957.9    
  744 1864 -2.124 1963.9    
  743 1862 -2.242 1968.9    
  744 1862 -0.868 1976.9    
  744 1861 -2.714 1980.8    
  745 1865 -1.991 1981.6    
  745 1864 -0.917 1990.3    
  743 1859 -2.523 1994.3    
  746 1865 -2.685 1999.5    
  745 1863 -2.256 2000.5    
  744 1859 -1.987 2001.8    
  744 1857 -3.743 2006.0    
  745 1861 -1.644 2007.0    
  746 1864 -2.065 2007.7    
  747 1865 -0.800 2014.2    
  746 1862 -3.169 2021.3    
  746 1861 -1.855 2025.4    
  743 1855 -1.733 2026.6    
  747 1863 -1.451 2034.4    
  748 1865 -1.868 2034.9    
  744 1855 -1.425 2035.0    
  744 1853 -3.068 2041.0    
  747 1861 -2.501 2041.1    
  748 1864 -3.220 2044.0    
  744 1852 -2.148 2047.3    
  747 1860 -2.274 2050.8    
  743 1849 -2.197 2052.1    
  746 1857 -3.197 2052.4    
  748 1863 -1.674 2055.5    
  744 1850 -1.957 2059.9    
  744 1849 -3.030 2060.7    
  748 1861 -2.327 2062.3    
  745 1855 -2.122 2063.4    
  747 1858 -2.396 2064.4    
  747 1857 -2.235 2068.6    
  745 1854 -1.913 2069.0    
  745 1853 -1.878 2069.5    
  748 1860 -2.771 2072.2    
  745 1852 -2.654 2076.0    
  746 1855 -2.151 2082.8    
  745 1851 -3.072 2085.4    
  745 1850 -2.802 2089.0    
  746 1853 -2.260 2089.1    
  748 1857 -2.925 2090.4    
  745 1848 -2.852 2091.7    
  749 1864 -1.865 2095.1    
  746 1852 -2.533 2095.7    
  747 1853 -2.345 2105.8    
  749 1863 -2.654 2107.2    
  746 1849 -2.992 2109.8    
  746 1848 -2.314 2111.7    
  749 1861 -2.066 2114.4    
  744 1845 -1.857 2121.4    
  747 1851 -2.890 2122.2    
  749 1860 -2.010 2124.8    
  743 1842 -2.699 2125.6    
  748 1854 -2.430 2127.9    
  748 1853 -2.171 2128.4    
  744 1843 -2.465 2130.0    
  744 1842 -2.006 2134.9    
  748 1852 -2.410 2135.3    
  749 1859 -4.941 2139.1    
  745 1846 -1.684 2147.8    
  748 1848 -2.717 2151.9    
  745 1845 -2.426 2152.2    
  745 1844 -1.487 2157.8    
  744 1841 -1.331 2158.3    
  745 1843 -2.030 2161.0    
  745 1842 -2.089 2166.2    
  749 1856 -3.621 2173.5    
  747 1847 -1.335 2174.5    
  746 1843 -2.242 2182.4    
  749 1854 -2.102 2183.4    
  749 1853 -1.967 2183.9    
  747 1846 -2.295 2186.9    
  745 1841 -1.476 2190.2    
  749 1852 -2.263 2191.2    
  750 1929 -2.330 2194.4    
  747 1844 -1.139 2197.4    
  747 1843 -1.854 2200.7    
  749 1851 -1.269 2201.6    
  743 1839 -2.865 2207.7    
  744 1840 -2.906 2211.0    
  748 1846 -2.108 2211.3    
  746 1841 -2.542 2212.2    
  744 1839 -2.192 2217.8    
  748 1844 -2.201 2221.9    
  748 1843 -3.776 2225.3    
  747 1841 -2.112 2231.0    
  743 1836 -1.383 2244.5    
  745 1840 -2.252 2244.5    
  745 1839 -1.965 2251.5    
  744 1837 -2.020 2253.6    
  744 1836 -1.588 2254.8    
  743 1833 -1.975 2255.9    
  744 1835 -1.653 2258.2    
  745 1838 -1.675 2259.6    
  743 1832 -1.669 2261.4    
  751 1926 -1.373 2264.9    
  746 1840 -1.889 2267.6    
  750 1918 -0.947 2270.4    
  744 1832 -1.765 2272.0    
  746 1839 -0.860 2274.7    
  749 1845 -2.922 2276.2    
  744 1830 -2.679 2277.8    
  747 1840 -1.808 2287.3    
  743 1828 -0.895 2290.0    
  745 1835 -1.373 2293.1    
  750 1907 -1.343 2300.1    
  744 1828 -1.160 2300.8    
  752 1928 -1.318 2301.6    
  747 1838 -1.244 2302.9    
  745 1832 -1.831 2307.4    
  753 1928 -0.678 2308.2    
  752 1927 -0.317 2309.5    
  743 1826 -0.307 2311.0    
  746 1837 -0.416 2312.3    
  746 1836 -0.911 2313.7    
  748 1840 -0.283 2314.0    
  746 1835 -0.652 2317.2    
  743 1825 -0.113 2320.0    
  748 1839 -0.227 2321.4    
  754 1929 -0.212 2321.6    
  744 1826 -1.846 2322.0    
  750 1904 -0.576 2322.7    
  750 1903 -0.272 2324.6    
  746 1833 -0.211 2325.8    
  748 1838 -0.615 2330.0    
  746 1832 -2.447 2331.7    
  745 1828 -1.990 2337.1    
  743 1823 -2.199 2337.5    
  747 1835 -1.512 2337.8    
  746 1830 -1.769 2337.8    
  750 1899 -2.109 2339.7    
  743 1820 -0.628 2345.5    
  746 1829 -1.452 2346.6    
  743 1819 -1.678 2347.5    
  750 1890 -1.431 2354.5    
  744 1821 -2.544 2355.1    
  750 1889 -1.286 2356.6    
  744 1820 -1.873 2356.9    
  744 1819 -2.098 2358.9    
  748 1837 -0.568 2360.6    
  746 1828 -1.780 2362.1    
  753 1919 -2.688 2373.5    
  745 1824 -2.578 2376.0    
  749 1840 -2.644 2379.7    
  748 1832 -2.720 2380.8    
  752 1918 -1.665 2383.5    
  746 1826 -1.200 2384.4    
  748 1831 -2.466 2385.0    
  745 1823 -1.756 2386.6    
  749 1839 -2.296 2387.6    
  753 1918 -1.290 2390.6    
  745 1822 -2.336 2393.0    
  745 1820 -2.507 2395.0    
  748 1829 -2.946 2396.4    
  749 1838 -2.563 2396.6    
  746 1824 -2.067 2401.8    
  754 1918 -1.165 2406.9    
  751 1893 -1.693 2409.7    
  746 1823 -2.124 2412.6    
  746 1821 -1.234 2419.3    
  746 1820 -2.062 2421.2    
  746 1819 -2.697 2423.3    
  748 1827 -2.157 2423.7    
  747 1824 -1.617 2424.0    
  753 1906 -2.603 2426.1    
  751 1888 -1.957 2429.3    
  750 1872 -2.328 2433.2    
  749 1835 -2.247 2434.4    
  750 1871 -1.782 2436.7    
  750 1869 -1.808 2439.8    
  750 1868 -2.057 2440.4    
  752 1904 -1.722 2441.1    
  747 1822 -2.164 2441.7    
  747 1821 -2.419 2441.8    
  753 1904 -1.877 2448.6    
  749 1832 -2.687 2450.5    
  750 1866 -1.661 2451.0    
  748 1824 -2.008 2454.0    
  749 1830 -5.408 2457.2    
  752 1899 -4.601 2459.9    
  752 1896 -3.501 2460.6    
  752 1892 -3.875 2462.0    
  748 1823 -2.594 2465.3    
  749 1829 -2.581 2467.0    
  752 1891 -2.257 2471.9    
  748 1822 -1.540 2472.1    
  748 1821 -2.317 2472.2    
  748 1820 -3.622 2474.2    
  752 1890 -2.383 2476.3    
  743 1816 -2.324 2476.9    
  752 1889 -2.204 2478.6    
  744 1817 -4.690 2481.9    
  752 1888 -1.973 2482.4    
  749 1828 -2.967 2484.0    
  753 1889 -3.292 2486.3    
  744 1816 -3.055 2489.5    
  753 1888 -2.192 2490.1    
  749 1827 -3.478 2495.9    
  751 1875 -1.808 2500.3    
  751 1874 -1.754 2501.1    
  745 1818 -5.225 2506.2    
  754 1888 -1.824 2507.8    
  751 1869 -1.848 2513.9    
  745 1817 -3.096 2524.2    
  749 1824 -3.443 2528.1    
  745 1816 -3.519 2532.1    
  749 1823 -2.580 2540.0    
  749 1822 -3.848 2547.2    
  749 1821 -3.213 2547.4    
  749 1820 -4.012 2549.5    
  746 1817 -3.031 2553.4    
  747 1818 -3.292 2559.7    
  746 1816 -3.340 2561.4    
  752 1872 -2.807 2563.5    
  752 1871 -2.891 2567.4    
  752 1869 -4.450 2570.9    
  752 1868 -3.312 2571.5    
  753 1871 -2.968 2575.6    
  747 1817 -3.162 2578.5    
  753 1869 -2.725 2579.1    
  752 1866 -2.224 2583.3    
  753 1866 -2.135 2591.6    
  748 1818 -3.898 2593.1    
  754 1869 -1.882 2598.1    
  748 1817 -4.102 2612.4    
  748 1816 -5.192 2620.8    
  750 1865 -3.342 2643.2    
  750 1864 -3.567 2658.5    
  750 1863 -2.714 2678.0    
  750 1861 -2.669 2689.7    
  749 1817 -3.037 2696.5    
  749 1816 -3.407 2705.5    
  750 1860 -2.260 2706.5    
  755 1927 -2.844 2717.0    
  750 1859 -2.889 2729.8    
  755 1924 -4.288 2730.6    
  750 1857 -2.929 2737.6    
  744 1815 -2.849 2746.7    
  751 1863 -3.969 2767.6    
  755 1922 -6.593 2774.4    
  750 1856 -3.193 2786.1    
  750 1855 -3.362 2791.9    
  745 1815 -2.090 2798.7    
  750 1854 -1.925 2802.3    
  750 1853 -2.222 2803.1    
  743 1814 -3.192 2805.1    
  752 1864 -3.364 2814.9    
  750 1852 -4.139 2815.2    
  744 1814 -2.148 2821.3    
  750 1851 -2.512 2832.3    
  746 1815 -3.139 2834.5    
  750 1850 -2.278 2838.9    
  750 1848 -2.761 2844.1    
  753 1863 -3.732 2846.8    
  752 1861 -2.560 2849.8    
  753 1861 -4.069 2859.9    
  747 1815 -2.411 2865.5    
  755 1907 -3.984 2866.0    
  752 1860 -2.216 2868.7    
  745 1814 -3.740 2876.1    
  753 1860 -2.981 2879.0    
  751 1856 -3.509 2883.1    
  752 1859 -3.550 2894.9    
  751 1854 -4.420 2900.4    
  754 1860 -2.388 2902.7    
  755 1903 -2.529 2904.2    
  753 1858 -2.312 2905.7    
  748 1815 -2.729 2907.5    
  746 1814 -3.740 2914.0    
  755 1901 -3.975 2926.6    
  755 1899 -4.083 2927.6    
  755 1896 -4.919 2928.6    
  755 1894 -4.527 2929.7    
 1777  864 -1.844 2930.9    
  751 1851 -2.346 2932.6    
  744 1812 -1.892 2943.9    
  750 1846 -4.264 2948.7    
  755 1890 -2.536 2950.9    
  750 1845 -5.395 2957.1    
  752 1856 -2.575 2958.3    
  750 1844 -3.364 2967.7    
  753 1856 -2.175 2969.2    
  750 1843 -3.154 2973.7    
  752 1853 -3.098 2977.5    
  745 1813 -1.566 2981.6    
  750 1842 -2.328 2983.4    
  743 1809 -2.118 2984.1    
  752 1852 -2.600 2991.1    
  748 1814 -3.937 2991.1    
  744 1811 -2.002 2992.6    
  744 1810 -1.595 2994.5    
  753 1852 -4.096 3002.2    
  744 1809 -0.773 3002.5    
  745 1812 -0.907 3003.6    
  749 1815 -0.567 3012.0    
  752 1850 -2.477 3017.9    
  743 1808 -2.226 3019.1    
  752 1848 -3.257 3023.7    
  743 1806 -2.960 3031.9    
  744 1808 -1.425 3037.9    
  746 1812 -2.372 3045.0    
  754 1851 -3.139 3047.8    
  744 1806 -0.942 3050.8    
  745 1811 -1.213 3054.3    
  747 1813 -0.740 3057.6    
  745 1809 -2.328 3064.6    
  755 1877 -4.554 3065.3    
 1779  864 -1.826 3066.4    
  755 1872 -4.325 3075.6    
  751 1844 -3.230 3078.0    
  747 1812 -1.862 3080.8    
  755 1868 -2.673 3087.1    
 1778  860 -2.512 3088.0    
 1777  843 -3.948 3096.4    
 1781  864 -2.230 3096.8    
  746 1811 -2.235 3097.1    
  746 1810 -2.525 3099.1    
  745 1808 -0.774 3101.6    
  749 1814 -0.889 3101.9    
  748 1813 -2.039 3105.5    
  745 1807 -2.219 3114.1    
 1777  841 -1.964 3116.7    
 1777  840 -2.346 3118.6    
 1777  836 -2.594 3125.1    
 1778  850 -2.376 3127.7    
  748 1812 -3.670 3129.3    
 1778  848 -1.736 3132.5    
  747 1811 -0.694 3134.1    
  743 1805 -5.369 3145.1    
  746 1808 -3.126 3145.7    
 1780  862 -1.742 3146.3    
 1780  861 -2.253 3153.4    
  753 1846 -2.492 3154.6    
  746 1806 -5.685 3159.5    
  750 1838 -3.952 3163.5    
  753 1845 -3.624 3164.2    
  744 1805 -4.830 3165.5    
  752 1843 -2.961 3170.7    
  752 1842 -2.001 3181.7    
  754 1846 -1.862 3183.0    
  753 1843 -1.958 3183.3    
  748 1811 -2.779 3184.4    
 1778  843 -2.698 3186.5    
 1778  842 -2.186 3190.0    
 1785  864 -2.067 3191.9    
  748 1809 -3.383 3195.6    
 1782  863 -1.828 3196.2    
  747 1807 -2.447 3197.1    
  744 1804 -3.697 3200.4    
 1780  849 -1.160 3207.0    
 1778  840 -1.093 3209.9    
 1780  847 -1.051 3213.4    
 1777  816 -0.752 3214.1    
 1778  836 -0.851 3216.8    
 1777  815 -0.634 3217.8    
 1782  716 -1.142 3218.2    
 1778  835 -0.789 3221.3    
  743 1803 -2.985 3221.7    
 1784  863 -0.394 3224.0    
  749 1813 -2.171 3225.0    
  743 1801 -1.982 3232.9    
  745 1805 -2.437 3234.6    
 1778  833 -3.102 3241.7    
  744 1803 -2.032 3243.1    
  744 1802 -3.338 3248.5    
  748 1807 -3.581 3249.4    
  749 1812 -2.502 3250.7    
 1782  851 -1.078 3257.8    
 1780  843 -1.467 3264.4    
 1787  862 -2.291 3265.9    
 1780  842 -1.133 3268.1    
  745 1804 -3.331 3271.1    
 1783  850 -2.687 3271.2    
 1783  849 -2.562 3275.6    
 1783  848 -1.466 3276.5    
 1782  844 -1.471 3277.2    
 1787  860 -1.066 3281.9    
  746 1805 -3.209 3282.7    
 1783  846 -0.955 3282.8    
 1778  820 -1.425 3284.4    
  744 1799 -3.249 3286.9    
 1780  838 -1.257 3293.7    
 1780  836 -1.804 3296.3    
 1781  841 -1.231 3304.9    
 1781  840 -1.797 3307.0    
  749 1811 -2.955 3310.2    
 1781  837 -0.753 3312.3    
 1788  862 -0.892 3313.0    
  745 1803 -1.701 3315.7    
  746 1804 -2.344 3320.3    
 1778  813 -1.857 3321.2    
  749 1809 -1.903 3322.3    
 1787  851 -1.823 3326.6    
 1787  850 -1.226 3326.7    
 1778  812 -1.530 3327.4    
 1787  848 -1.016 3332.2    
 1783  843 -1.751 3335.6    
  744 1796 -4.154 3337.0    
  750 1827 -3.553 3338.8    
 1787  845 -1.086 3339.0    
  743 1794 -2.090 3351.1    
 1783  841 -0.983 3359.1    
 1783  840 -1.138 3361.2    
  745 1799 -2.023 3361.6    
  747 1804 -2.552 3362.8    
 1783  839 -1.435 3363.6    
 1790  860 -1.874 3363.9    
  749 1808 -2.115 3365.8    
  746 1803 -2.373 3366.2    
 1779  818 -0.882 3366.8    
 1783  836 -1.804 3368.8    
  743 1793 -2.019 3369.6    
  746 1802 -2.249 3372.0    
  744 1794 -2.058 3374.2    
 1779  817 -0.434 3374.6    
 1788  851 -1.344 3375.5    
 1788  850 -1.354 3375.6    
 1783  834 -1.148 3376.3    
  749 1807 -0.853 3380.6    
  748 1805 -2.176 3380.9    
 1789  848 -1.472 3389.4    
  743 1791 -1.966 3391.0    
  744 1793 -1.496 3393.0    
 1787  843 -1.254 3393.3    
 1789  846 -0.910 3396.2    
 1787  842 -1.706 3397.2    
 1781  818 -1.014 3403.4    
 1793  860 -1.163 3403.8    
  743 1790 -3.043 3409.6    
  746 1799 -2.420 3413.5    
 1785  841 -1.360 3413.5    
  745 1796 -2.821 3413.9    
 1781  816 -1.384 3414.6    
  744 1791 -0.675 3414.8    
 1781  814 -1.748 3421.2    
 1785  837 -0.863 3421.3    
 1787  839 -1.243 3422.3    
 1794  860 -1.254 3422.9    
  747 1800 -1.152 3423.7    
 1790  845 -1.523 3424.0    
 1787  835 -2.108 3432.8    
  744 1790 -1.389 3433.6    
 1791  848 -2.425 3435.6    
  743 1789 -2.683 3437.3    
 1781  811 -1.349 3442.0    
 1791  846 -1.689 3442.6    
 1783  820 -1.786 3443.0    
 1796  862 -0.625 3444.2    
  745 1795 -1.038 3446.3    
  745 1794 -1.159 3452.9    
 1793  849 -1.406 3456.9    
 1793  848 -1.485 3457.9    
  747 1799 -0.637 3458.5    
  744 1789 -1.684 3461.7    
 1793  845 -1.367 3465.3    
 1796  716 -1.635 3465.8    
 1798  863 -1.049 3467.7    
  748 1803 -2.507 3469.5    
  745 1793 -2.554 3472.5    
 1794  849 -1.536 3476.6    
 1794  848 -1.576 3477.6    
 1789  841 -1.223 3477.9    
 1795  850 -1.915 3478.4    
 1783  814 -1.629 3479.3    
 1789  840 -1.141 3480.2    
 1790  843 -2.074 3481.1    
 1789  839 -1.893 3482.7    
 1783  813 -1.817 3483.5    
  748 1800 -1.897 3483.8    
 1794  845 -1.490 3485.1    
 1789  836 -1.469 3488.3    
  745 1792 -0.915 3493.0    
 1798  716 -0.502 3493.6    
 1789  834 -1.159 3496.3    
 1799  862 -2.110 3499.3    
  746 1795 -2.181 3500.9    
  743 1785 -3.975 3502.6    
 1787  820 -2.181 3504.6    
  747 1797 -1.088 3510.3    
 1790  839 -1.753 3511.6    
 1796  851 -1.169 3511.9    
 1796  850 -1.437 3511.9    
  747 1796 -2.900 3513.9    
  745 1790 -0.890 3515.1    
 1796  849 -1.619 3517.0    
 1785  818 -0.903 3518.6    
  748 1799 -2.249 3519.8    
  744 1786 -0.801 3524.5    
 1796  847 -1.726 3524.8    
 1791  841 -1.576 3526.5    
 1791  840 -1.629 3528.9    
 1785  816 -1.202 3530.6    
 1791  836 -2.047 3537.2    
 1785  814 -2.183 3537.6    
 1798  851 -1.789 3540.3    
 1785  813 -2.224 3542.0    
 1794  843 -1.494 3544.2    
 1800  861 -1.790 3544.4    
  753 1829 -2.698 3545.2    
  748 1798 -3.941 3548.2    
  747 1795 -2.180 3548.2    
 1794  842 -2.518 3548.5    
  746 1791 -3.179 3551.5    
  745 1788 -3.633 3553.5    
 1793  839 -1.994 3555.1    
 1785  811 -1.673 3559.9    
 1793  836 -2.754 3560.9    
  743 1783 -3.826 3561.8    
 1798  844 -1.991 3563.2    
  752 1828 -3.249 3564.7    
  755 1859 -2.812 3565.2    
  749 1804 -0.965 3566.4    
 1789  820 -1.998 3567.9    
  746 1790 -2.127 3571.9    
 1794  840 -2.227 3573.3    
 1799  849 -1.973 3574.4    
 1794  839 -1.937 3575.9    
 1794  836 -2.981 3581.8    
 1799  847 -2.275 3582.4    
 1789  819 -2.213 3584.6    
 1795  838 -2.197 3585.9    
 1796  843 -1.936 3586.2    
 1794  835 -1.710 3587.3    
  744 1783 -3.498 3587.9    
 1796  842 -1.581 3590.7    
  747 1792 -1.557 3597.7    
 1789  816 -2.252 3599.5    
  746 1789 -3.292 3602.3    
 1789  815 -2.080 3604.3    
 1789  814 -1.674 3606.8    
  745 1787 -2.856 3609.3    
  745 1786 -1.907 3610.5    
 1789  813 -1.740 3611.4    
  748 1795 -2.249 3612.7    
  749 1803 -0.654 3619.4    
 1802  848 -1.713 3622.2    
  743 1781 -3.399 3624.7    
 1803  848 -2.460 3628.9    
 1802  846 -1.250 3629.9    
 1800  844 -1.993 3630.6    
  749 1800 -3.858 3634.9    
 1791  819 -1.567 3636.3    
  748 1793 -5.616 3641.6    
  754 1827 -2.525 3642.4    
 1793  820 -1.636 3643.9    
 1805  862 -2.504 3648.3    
 1786  805 -2.278 3648.3    
 1790  812 -3.136 3649.9    
 1799  842 -2.556 3650.5    
 1791  815 -2.906 3656.5    
 1805  861 -2.894 3657.7    
 1791  814 -2.551 3659.2    
  747 1788 -3.414 3661.9    
 1791  813 -2.853 3663.9    
  748 1792 -2.825 3664.1    
 1805  860 -1.194 3668.2    
  746 1787 -3.689 3669.2    
  746 1786 -3.138 3670.4    
  744 1780 -4.198 3674.1    
  749 1799 -2.218 3674.1    
 1804  851 -2.769 3677.0    
 1804  850 -2.665 3677.1    
 1799  838 -2.825 3682.5    
 1799  836 -2.910 3685.7    
  748 1790 -3.171 3688.4    
 1793  813 -2.015 3689.3    
 1800  842 -2.436 3690.0    
 1804  847 -2.681 3691.2    
  745 1782 -3.880 3693.9    
 1793  812 -1.767 3696.9    
  752 1820 -2.612 3701.1    
 1786  803 -2.846 3701.6    
 1794  813 -2.655 3711.8    
  753 1822 -3.137 3713.3    
  753 1821 -2.708 3713.7    
 1801  841 -1.994 3715.5    
 1792  810 -1.864 3716.4    
 1801  840 -2.685 3718.1    
 1789  805 -2.989 3718.2    
 1794  812 -2.390 3719.5    
 1799  832 -2.224 3721.6    
  747 1786 -2.786 3722.5    
 1800  838 -2.305 3722.7    
 1802  841 -2.480 3723.4    
  750 1816 -4.213 3724.7    
 1801  837 -1.568 3724.8    
 1802  840 -2.622 3726.0    
 1802  839 -1.677 3728.9    
 1805  849 -1.668 3730.0    
  748 1788 -4.523 3730.7    
 1805  848 -1.873 3731.2    
  749 1796 -3.099 3736.8    
  746 1783 -3.576 3739.2    
 1805  845 -1.141 3739.8    
 1790  806 -2.568 3744.1    
 1792  809 -1.640 3744.2    
 1802  834 -1.104 3744.6    
 1803  835 -3.255 3748.5    
  743 1778 -4.410 3749.0    
 1781  791 -3.500 3750.3    
 1790  805 -2.711 3751.2    
  754 1822 -2.818 3752.8    
 1792  807 -1.765 3757.3    
 1790  804 -3.546 3758.4    
 1804  843 -3.373 3758.6    
 1783  795 -3.509 3759.5    
  755 1848 -2.589 3762.6    
 1800  832 -2.377 3762.7    
 1804  842 -2.751 3763.5    
 1796  812 -3.509 3765.7    
  745 1780 -6.266 3767.5    
 1792  806 -2.638 3769.5    
 1793  742 -3.203 3770.4    
  747 1784 -4.048 3772.5    
 1791  805 -2.337 3773.9    
  749 1795 -2.221 3775.6    
 1803  833 -2.344 3776.2    
  749 1794 -1.597 3783.5    
 1795  741 -2.172 3788.8    
  748 1787 -4.019 3792.3    
 1793  806 -3.289 3793.5    
  748 1786 -3.571 3793.6    
 1794  742 -3.401 3793.9    
 1804  838 -2.399 3797.5    
 1795  809 -3.021 3799.3    
 1793  805 -2.512 3800.8    
 1804  836 -3.115 3800.9    
 1795  808 -3.189 3801.2    
  749 1793 -2.778 3807.1    
 1805  843 -2.487 3808.0    
  747 1782 -5.038 3811.3    
 1805  842 -2.457 3812.9    
 1786  801 -3.306 3815.3    
 1787  801 -3.392 3816.6    
 1794  806 -2.691 3817.3    
 1783  792 -3.628 3818.2    
 1794  805 -2.899 3824.7    
 1795  806 -2.331 3825.4    
 1786  798 -1.544 3825.8    
 1802  820 -2.452 3826.8    
 1786  796 -1.322 3830.6    
  749 1792 -2.726 3831.7    
 1786  794 -2.299 3831.8    
  746 1780 -4.531 3832.9    
 1803  820 -2.545 3834.3    
 1804  833 -2.293 3835.7    
 1786  793 -1.452 3844.3    
 1805  839 -1.810 3844.6    
 1797  808 -1.229 3845.6    
 1805  836 -2.569 3851.4    
 1808  860 -1.988 3855.8    
 1797  807 -1.221 3857.6    
  749 1790 -1.564 3858.3    
 1801  814 -1.488 3863.1    
 1801  813 -2.212 3868.3    
 1802  814 -2.128 3871.6    
 1800  812 -3.328 3875.2    
 1802  813 -2.379 3876.9    
  745 1778 -4.591 3877.0    
  743 1777 -4.990 3881.9    
 1794  803 -3.129 3883.3    
 1803  813 -2.474 3884.6    
  748 1782 -5.311 3885.9    
 1801  811 -0.990 3889.7    
  747 1780 -4.654 3889.7    
 1789  800 -2.440 3893.5    
 1799  741 -1.664 3896.8    
 1809  861 -2.714 3902.5    
 1789  798 -3.215 3902.8    
  749 1788 -5.881 3904.6    
 1799  809 -2.706 3907.9    
 1811  862 -2.663 3908.5    
 1789  795 -2.038 3908.9    
 1799  808 -2.798 3909.8    
  744 1777 -6.461 3913.0    
 1806  846 -2.710 3913.2    
 1809  860 -2.071 3914.5    
 1778  787 -3.953 3915.6    
 1808  850 -2.043 3917.8    
 1792  802 -2.051 3918.2    
 1811  861 -2.490 3919.4    
 1808  848 -2.373 3925.5    
 1790  801 -1.599 3927.9    
 1790  800 -2.443 3929.6    
 1790  799 -2.513 3934.1    
 1808  845 -2.084 3935.0    
 1790  798 -2.219 3939.1    
 1800  741 -1.244 3941.8    
 1790  797 -1.188 3944.1    
 1790  796 -2.373 3944.2    
 1800  809 -1.667 3953.2    
 1791  800 -1.614 3954.5    
 1800  808 -1.832 3955.2    
 1803  741 -1.622 3960.3    
 1792  799 -1.645 3962.1    
 1791  798 -2.410 3964.2    
 1791  795 -1.149 3970.5    
  749 1787 -3.821 3972.2    
  749 1786 -3.045 3973.6    
 1792  794 -1.613 3973.6    
 1803  742 -1.073 3974.6    
 1809  850 -2.238 3978.4    
 1793  800 -1.494 3984.1    
 1809  848 -2.063 3986.3    
 1792  793 -2.378 3987.1    
 1806  843 -2.764 3988.3    
  753 1818 -4.246 3993.3    
 1793  798 -1.790 3993.9    
 1812  862 -2.076 3994.8    
 1811  851 -2.622 3995.8    
 1809  845 -2.088 3996.1    
 1793  796 -2.271 3999.1    
 1810  848 -2.586 4000.5    
 1811  849 -1.910 4002.5    
 1812  861 -1.700 4006.1    
 1794  801 -2.283 4008.6    
 1810  846 -2.128 4010.0    
 1794  800 -1.575 4010.3    
 1795  801 -1.224 4017.6    
  752 1817 -3.820 4019.1    
 1794  798 -2.005 4020.3    
 1806  841 -2.322 4022.0    
 1795  799 -1.505 4024.0    
 1806  840 -2.290 4025.1    
 1794  797 -1.691 4025.4    
 1794  796 -2.612 4025.5    
 1804  741 -1.126 4025.8    
 1795  794 -2.135 4035.8    
 1806  836 -2.958 4036.0    
 1804  809 -1.682 4037.7    
 1791  791 -3.053 4038.3    
  752 1816 -3.915 4039.0    
 1804  808 -2.479 4039.7    
 1777  775 -3.010 4045.4    
 1813  861 -2.027 4045.9    
 1806  834 -2.431 4046.8    
 1808  840 -2.830 4047.8    
 1808  839 -1.902 4051.2    
 1804  807 -2.444 4053.0    
 1778  784 -2.927 4057.3    
 1808  836 -2.149 4058.7    
 1780  786 -3.231 4059.7    
 1796  801 -2.630 4062.4    
 1802  803 -2.043 4064.4    
 1796  799 -2.959 4069.0    
 1793  791 -2.543 4069.2    
 1803  803 -2.620 4072.9    
 1809  843 -2.581 4074.1    
  749 1782 -5.223 4074.9    
 1807  833 -2.749 4076.7    
 1809  842 -2.618 4079.7    
 1805  741 -2.410 4082.4    
 1812  850 -1.973 4086.1    
 1811  843 -2.362 4092.4    
 1812  849 -1.624 4093.0    
  746 1777 -6.808 4093.6    
 1794  791 -2.711 4096.5    
 1811  842 -1.748 4098.1    
 1795  792 -3.223 4103.5    
 1812  847 -2.824 4103.6    
 1809  840 -3.574 4112.4    
 1809  839 -1.563 4116.0    
 1792  790 -2.230 4122.0    
 1809  836 -2.245 4123.8    
 1792  789 -2.926 4130.5    
 1810  839 -2.370 4131.2    
 1811  838 -1.962 4138.5    
 1799  801 -3.399 4139.2    
 1804  803 -1.987 4142.2    
 1805  804 -1.426 4142.3    
 1806  820 -2.244 4143.0    
 1782  786 -2.747 4148.7    
 1810  834 -1.846 4150.4    
 1813  844 -1.970 4158.5    
 1777  772 -3.499 4161.3    
  749 1780 -5.202 4164.6    
 1806  819 -3.218 4165.4    
 1808  820 -1.853 4167.0    
 1780  784 -2.282 4184.5    
 1795  790 -2.892 4189.0    
 1812  842 -2.556 4193.1    
 1801  800 -2.401 4193.7    
 1806  814 -1.378 4195.5    
 1778  775 -2.076 4200.5    
 1806  813 -1.388 4201.7    
 1802  801 -2.401 4201.8    
 1805  803 -2.235 4202.1    
 1803  801 -2.869 4210.9    
 1801  795 -3.802 4211.7    
 1803  800 -3.004 4212.8    
 1786  788 -3.730 4217.8    
 1803  799 -3.886 4218.0    
 1787  788 -3.791 4219.3    
 1802  797 -3.819 4220.3    
 1778  774 -2.958 4221.7    
 1803  798 -3.079 4223.8    
 1808  813 -2.299 4226.4    
 1803  797 -2.513 4229.5    
 1799  792 -2.597 4230.4    
 1786  787 -1.817 4231.0    
 1812  838 -2.192 4235.3    
 1809  820 -2.701 4235.5    
 1808  812 -2.200 4236.4    
 1813  842 -2.305 4236.7    
 1812  836 -3.147 4239.6    
 1777  770 -3.447 4239.9    
 1796  789 -3.510 4246.8    
 1810  820 -3.877 4251.6    
 1797  789 -1.801 4252.0    
 1811  820 -2.608 4255.4    
 1814  861 -3.710 4258.0    
 1786  786 -3.687 4259.3    
 1787  786 -3.769 4260.9    
 1777  766 -3.921 4268.4    
 1780  783 -3.494 4268.7    
 1807  810 -2.555 4268.9    
 1780  782 -3.021 4269.2    
 1777  763 -3.954 4271.4    
 1814  860 -3.058 4272.2    
 1810  819 -3.510 4275.3    
 1813  838 -2.339 4279.8    
 1777  762 -2.241 4284.7    
 1804  801 -1.887 4285.0    
 1801  791 -1.193 4288.0    
 1804  799 -2.197 4292.3    
 1802  792 -1.417 4295.9    
 1809  813 -2.399 4297.0    
 1802  791 -2.207 4298.5    
  749 1778 -5.638 4298.8    
 1783  784 -3.156 4302.1    
 1807  809 -1.777 4305.6    
 1810  814 -2.505 4307.0    
 1809  812 -1.974 4307.3    
 1807  808 -1.855 4307.9    
 1803  791 -2.245 4308.0    
 1810  813 -2.395 4313.5    
 1808  741 -2.876 4316.2    
 1799  790 -3.133 4321.3    
 1804  793 -3.316 4321.6    
 1807  807 -1.755 4323.0    
 1789  787 -2.712 4325.4    
 1778  772 -1.837 4325.6    
 1799  789 -1.888 4330.7    
  750 1815 -2.737 4331.6    
 1808  742 -1.957 4333.2    
 1807  806 -2.726 4339.1    
 1788  786 -3.032 4341.4    
 1814  851 -3.681 4348.4    
 1814  850 -3.252 4348.4    
 1790  788 -2.081 4355.9    
 1812  820 -2.664 4357.9    
 1780  774 -1.605 4359.6    
 1782  783 -2.817 4367.3    
 1781  775 -2.644 4368.3    
 1814  845 -3.035 4369.6    
 1790  787 -2.311 4370.0    
 1804  792 -2.446 4382.9    
 1808  804 -2.327 4383.2    
 1782  780 -1.495 4384.5    
 1800  789 -1.917 4386.5    
 1809  741 -2.888 4389.8    
 1782  779 -2.442 4389.9    
 1792  788 -2.068 4390.3    
 1786  784 -2.859 4396.9    
 1803  790 -1.854 4399.6    
 1791  787 -1.902 4400.9    
 1777  760 -0.863 4401.5    
 1778  770 -2.078 4410.5    
 1778  767 -3.263 4422.4    
 1806  803 -2.346 4422.9    
 1793  788 -3.115 4423.0    
 1782  776 -3.466 4424.9    
 1811  809 -2.451 4425.4    
 1792  786 -2.629 4435.3    
 1784  780 -0.869 4437.0    
 1793  787 -2.215 4437.6    
 1778  766 -2.628 4441.4    
 1784  779 -2.186 4442.4    
 1778  764 -3.715 4444.6    
 1805  792 -2.455 4450.1    
 1808  803 -2.453 4450.2    
 1805  791 -3.185 4452.9    
 1794  788 -2.268 4455.3    
 1778  762 -0.966 4459.0    
 1782  774 -0.991 4462.5    
 1795  788 -1.922 4466.4    
 1780  772 -0.962 4470.5    
 1804  790 -1.936 4480.6    
 1811  804 -2.147 4481.1    
 1788  784 -3.338 4484.5    
 1786  783 -3.052 4490.1    
 1786  782 -2.227 4490.5    
 1804  789 -3.288 4490.7    
 1787  782 -3.516 4492.3    
 1789  784 -3.411 4498.9    
 1794  786 -3.502 4501.7    
 1786  781 -2.773 4506.3    
 1795  786 -2.157 4513.0    
 1814  839 -2.684 4513.3    
 1787  778 -3.376 4517.8    
  750 1814 -3.229 4520.0    
 1812  741 -2.505 4521.3    
 1814  836 -3.110 4522.7    
 1809  803 -2.212 4528.5    
 1812  809 -2.538 4536.3    
 1807  802 -2.410 4537.4    
 1813  810 -2.734 4545.8    
 1810  803 -1.094 4546.9    
 1790  784 -1.945 4547.2    
 1811  803 -1.562 4551.2    
 1792  785 -1.891 4553.2    
 1785  775 -2.735 4559.9    
 1780  769 -3.378 4562.2    
 1787  775 -3.277 4567.4    
 1796  786 -3.592 4569.6    
 1813  741 -2.466 4572.1    
 1780  767 -3.606 4574.0    
 1791  784 -2.789 4580.6    
 1788  783 -2.853 4581.4    
 1806  801 -2.883 4586.1    
 1813  809 -2.705 4587.4    
 1806  800 -3.361 4588.4    
 1813  808 -1.962 4590.0    
 1787  774 -1.160 4592.5    
 1812  804 -1.358 4594.9    
 1807  799 -1.693 4596.4    
 1788  780 -1.097 4600.4    
 1783  772 -1.143 4605.0    
 1806  795 -2.065 4609.9    
 1807  794 -1.645 4611.8    
 1788  777 -2.716 4614.6    
 1798  786 -2.579 4618.0    
 1793  784 -2.421 4620.4    
 1808  799 -4.062 4624.0    
 1781  766 -2.893 4629.5    
 1807  793 -2.387 4630.0    
 1808  798 -2.548 4631.0    
 1808  797 -2.458 4637.9    
 1813  804 -1.136 4647.3    
 1781  762 -1.082 4648.7    
 1794  784 -2.678 4655.7    
 1799  786 -1.869 4667.0    
 1795  784 -1.553 4667.8    
 1812  803 -2.428 4668.6    
 1790  778 -2.669 4674.8    
 1782  769 -3.832 4675.0    
 1789  775 -3.686 4675.6    
 1792  783 -2.325 4686.1    
 1788  774 -1.260 4686.2    
 1806  792 -1.756 4698.4    
 1806  791 -1.234 4701.5    
 1792  781 -0.998 4703.8    
 1792  779 -1.597 4712.1    
 1779  760 -0.836 4714.4    
 1787  772 -1.145 4715.8    
 1809  798 -2.120 4715.9    
 1810  801 -2.331 4719.7    
 1790  775 -2.499 4727.8    
 1808  792 -1.890 4729.3    
 1800  786 -1.271 4731.8    
 1808  791 -1.301 4732.5    
 1783  766 -2.885 4736.5    
 1783  763 -2.789 4740.2    
 1810  795 -2.765 4744.9    
 1793  778 -2.380 4752.1    
 1792  776 -1.077 4752.4    
 1790  774 -1.862 4754.8    
 1783  762 -1.196 4756.5    
  752 1815 -3.179 4762.6    
 1791  775 -1.696 4763.9    
 1795  783 -2.039 4772.9    
 1795  782 -1.849 4773.4    
  750 1813 -3.798 4786.3    
 1781  760 -1.227 4786.5    
 1794  778 -2.661 4789.4    
 1795  781 -2.486 4791.2    
 1804  788 -2.752 4799.4    
 1795  779 -2.337 4799.8    
 1793  775 -1.863 4807.0    
 1785  770 -2.792 4808.5    
 1795  777 -2.073 4808.9    
 1792  773 -2.245 4812.0    
 1807  790 -2.117 4812.9    
 1788  772 -2.314 4814.6    
 1786  769 -2.382 4815.9    
 1809  792 -1.598 4817.8    
 1786  768 -2.823 4819.2    
 1809  791 -1.454 4821.1    
 1786  767 -0.839 4829.0    
 1789  772 -1.168 4831.2    
 1799  784 -1.644 4832.7    
 1793  774 -1.455 4834.8    
 1810  792 -1.346 4838.6    
  750 1812 -3.866 4843.2    
 1811  792 -1.553 4843.5    
 1794  775 -1.689 4845.2    
 1786  765 -1.527 4852.6    
 1786  764 -0.621 4855.4    
 1796  780 -1.290 4857.4    
 1796  779 -2.241 4863.9    
 1785  762 -1.270 4866.3    
 1797  779 -0.555 4870.8    
 1796  777 -2.195 4873.3    
 1794  774 -1.560 4873.4    
 1787  762 -2.223 4874.8    
 1812  794 -3.042 4877.6    
 1795  774 -3.000 4886.7    
 1790  772 -2.048 4887.0    
 1783  760 -2.605 4901.0    
 1786  761 -0.715 4904.4    
 1798  780 -1.012 4912.0    
 1797  776 -0.500 4914.0    
 1802  784 -1.035 4918.4    
 1798  779 -1.933 4918.7    
 1791  772 -2.351 4925.6    
 1805  786 -1.058 4935.8    
 1789  770 -1.626 4937.3    
 1799  783 -1.190 4945.4    
 1799  782 -1.850 4946.0    
 1796  774 -1.229 4953.2    
 1799  781 -1.911 4965.2    
 1792  771 -1.030 4971.3    
 1793  772 -1.598 4971.6    
 1789  766 -2.320 4976.1    
  750 1811 -3.613 4976.3    
 1812  792 -1.983 4976.7    
 1789  763 -1.317 4980.2    
 1799  777 -0.389 4984.1    
 1790  770 -1.969 4995.7    
 1790  769 -1.741 4996.8    
 1789  762 -1.353 4998.2    
 1790  768 -1.029 5000.3    
  750 1809 -3.866 5003.7    
 1798  774 -1.439 5010.0    
 1790  767 -1.522 5010.9    
 1794  772 -1.663 5012.4    
 1814  803 -1.096 5014.2    
 1785  760 -1.056 5017.6    
 1800  783 -0.754 5018.3    
 1790  766 -0.483 5035.4    
 1791  770 -1.088 5036.0    
 1800  781 -0.918 5038.6    
 1792  769 -0.938 5042.2    
 1800  779 -1.184 5048.1    
 1803  783 -2.156 5048.2    
 1803  782 -1.062 5048.8    
 1791  767 -1.704 5051.5    
 1790  762 -1.895 5058.0    
 1799  774 -2.548 5067.8    
 1803  781 -2.073 5068.8    
 1791  763 -0.431 5080.5    
 1803  778 -0.383 5081.1    
 1792  765 -0.916 5082.3    
 1793  770 -0.929 5084.1    
 1800  776 -1.475 5094.4    
 1796  772 -1.607 5096.9    
 1791  762 -1.699 5099.3    
 1793  767 -1.081 5099.9    
  750 1808 -3.536 5103.0    
 1801  775 -1.056 5115.4    
 1805  784 -1.781 5121.6    
 1794  770 -1.058 5126.8    
 1793  764 -1.540 5129.4    
 1802  775 -2.209 5130.4    
 1794  768 -1.589 5131.8    
  750 1807 -2.542 5137.1    
 1792  761 -1.411 5139.3    
 1795  769 -0.816 5142.8    
 1794  767 -1.316 5142.9    
 1795  768 -0.639 5146.5    
 1804  783 -1.258 5155.1    
 1804  782 -0.625 5155.8    
 1794  766 -0.949 5168.7    
 1794  764 -1.835 5172.9    
 1804  781 -0.999 5176.6    
 1795  765 -1.408 5184.6    
 1804  779 -1.823 5186.6    
 1794  762 -2.395 5192.5    
 1804  777 -1.990 5197.2    
 1806  787 -3.274 5200.4    
 1796  769 -2.254 5216.5    
 1808  788 -3.357 5217.9    
 1799  772 -3.440 5218.3    
 1796  768 -2.300 5220.3    
 1814  801 -2.297 5225.1    
 1796  767 -3.161 5231.8    
 1804  776 -1.646 5235.5    
 1795  761 -2.702 5243.8    
 1814  798 -2.848 5244.9    
 1807  786 -2.985 5245.6    
 1805  783 -2.921 5248.4    
 1805  782 -3.573 5249.0    
 1814  797 -3.124 5253.7    
 1796  765 -2.971 5259.5    
 1791  760 -3.234 5265.7    
 1815  803 -1.146 5268.3    
 1808  786 -2.041 5281.7    
 1805  778 -3.654 5283.9    
 1816  862 -5.639 5309.9    
  752 1813 -6.096 5318.0    
 1802  772 -3.394 5318.3    
 1796  761 -3.839 5320.4    
 1798  765 -4.333 5323.6    
 1797  761 -2.530 5328.7    
 1803  772 -3.817 5332.8    
 1799  769 -4.203 5343.7    
 1800  771 -2.534 5346.8    
 1809  787 -2.957 5347.1    
 1799  768 -2.849 5347.7    
 1805  775 -3.359 5351.8    
  753 1813 -3.129 5353.4    
 1811  788 -3.365 5357.3    
 1799  767 -3.613 5359.8    
 1817  861 -3.915 5365.1    
 1814  792 -1.247 5371.3    
 1814  791 -3.393 5375.4    
 1805  774 -3.498 5386.4    
  752 1812 -4.008 5388.3    
 1809  786 -2.160 5392.3    
 1799  764 -4.512 5392.4    
 1807  785 -1.542 5411.2    
 1811  786 -1.850 5424.5    
  753 1812 -3.109 5424.6    
 1800  769 -2.928 5428.8    
 1801  770 -3.208 5430.4    
  754 1813 -2.467 5435.9    
 1802  770 -3.646 5447.2    
 1802  768 -2.926 5452.8    
 1806  784 -2.489 5453.2    
 1803  770 -1.663 5462.5    
 1803  768 -2.620 5468.1    
  751 1807 -0.369 5476.9    
 1803  767 -2.316 5480.8    
 1801  763 -3.813 5482.2    
 1802  766 -3.684 5494.5    
 1808  784 -1.655 5494.9    
 1801  762 -2.684 5504.1    
 1803  766 -1.893 5510.0    
 1815  799 -2.629 5513.7    
 1803  764 -2.765 5514.8    
 1814  790 -3.878 5518.8    
 1812  788 -3.730 5520.8    
 1802  762 -3.323 5521.4    
 1815  798 -2.757 5523.6    
 1815  796 -3.812 5533.6    
 1815  794 -3.322 5535.9    
 1803  762 -3.443 5537.1    
 1817  847 -3.967 5541.3    
 1800  761 -4.112 5541.5    
 1812  787 -4.066 5543.5    
  752 1811 -3.835 5553.7    
 1805  772 -3.557 5556.7    
 1815  793 -3.493 5562.1    
  750 1804 -3.403 5578.7    
  752 1809 -2.902 5587.9    
 1804  769 -1.637 5589.4    
 1812  786 -1.198 5592.1    
  753 1811 -2.950 5592.3    
 1804  768 -1.381 5593.7    
 1807  783 -1.337 5600.0    
 1804  767 -2.400 5607.0    
 1809  784 -1.418 5614.8    
 1807  781 -1.026 5625.3    
 1807  779 -1.171 5637.1    
 1804  765 -2.279 5638.7    
 1808  782 -1.891 5641.9    
 1804  764 -2.585 5642.6    
 1810  784 -2.050 5643.1    
 1811  784 -1.559 5649.7    
 1815  792 -1.204 5664.0    
 1808  781 -3.107 5666.8    
 1813  786 -1.481 5669.9    
 1808  778 -1.189 5682.2    
 1808  777 -2.827 5691.5    
 1807  776 -0.944 5695.0    
 1805  768 -2.850 5703.7    
 1804  761 -2.752 5708.9    
  750 1803 -2.964 5709.5    
  752 1808 -3.149 5711.9    
 1806  775 -1.300 5715.1    
 1816  840 -3.453 5729.3    
  750 1800 -3.941 5748.4    
 1805  766 -2.774 5749.3    
  752 1807 -2.987 5754.7    
 1808  775 -1.730 5760.8    
 1816  835 -3.227 5765.6    
 1809  782 -3.905 5768.3    
 1807  773 -3.114 5780.7    
 1809  781 -3.868 5794.4    
  753 1807 -4.300 5796.1    
 1811  783 -2.621 5804.4    
 1811  782 -1.278 5805.2    
 1809  778 -2.543 5810.5    
 1809  777 -3.198 5820.2    
 1811  781 -1.644 5831.6    
 1812  784 -2.535 5831.7    
 1811  780 -3.913 5834.8    
 1810  778 -3.895 5840.8    
  750 1799 -4.013 5847.0    
 1811  777 -1.101 5857.8    
 1813  785 -2.476 5863.9    
 1809  775 -2.205 5892.7    
  754 1807 -2.090 5892.9    
 1811  776 -2.435 5906.5    
 1810  775 -2.334 5923.9    
 1777  756 -4.569 5932.2    
 1780  759 -3.843 5933.9    
 1809  774 -5.322 5934.6    
 1816  820 -3.378 5971.1    
 1811  774 -3.227 5973.7    
 1780  758 -4.258 5987.3    
 1812  783 -1.736 5996.7    
 1812  782 -1.734 5997.6    
 1808  772 -3.055 5998.9    
  750 1796 -4.439 6007.3    
 1807  771 -2.950 6012.3    
 1812  781 -2.225 6025.8    
 1820  862 -3.903 6034.2    
 1822  863 -3.404 6035.2    
 1812  779 -2.672 6039.3    
 1821  862 -3.330 6046.1    
 1812  777 -1.855 6053.7    
 1820  861 -2.854 6060.0    
 1821  861 -2.210 6072.1    
 1813  783 -0.887 6086.3    
 1814  786 -3.084 6095.4    
 1812  776 -2.617 6105.8    
  750 1795 -3.283 6108.1    
 1806  770 -1.819 6111.1    
 1807  769 -1.006 6116.2    
 1813  781 -1.557 6116.2    
 1813  780 -2.332 6119.8    
  750 1794 -3.186 6129.0    
 1813  779 -1.220 6130.1    
 1806  767 -2.871 6134.0    
  756 1927 -3.374 6136.9    
  757 1929 -3.182 6137.9    
 1809  772 -2.961 6142.0    
  757 1928 -3.166 6150.2    
 1808  770 -1.498 6163.4    
 1808  768 -2.279 6170.6    
 1806  766 -3.059 6170.6    
 1807  765 -0.866 6175.4    
 1806  763 -1.280 6176.8    
 1807  764 -2.373 6180.0    
 1808  767 -1.725 6186.7    
  750 1793 -3.638 6191.2    
 1813  776 -2.545 6198.6    
 1806  762 -2.135 6204.6    
 1808  766 -1.680 6224.0    
 1808  764 -2.074 6230.1    
 1820  851 -3.417 6244.8    
 1820  850 -2.110 6245.0    
  750 1792 -3.304 6256.4    
 1821  851 -2.547 6257.6    
 1821  850 -2.361 6257.7    
 1808  762 -2.547 6258.6    
 1807  761 -1.714 6259.6    
 1820  849 -2.984 6261.1    
 1820  848 -2.947 6264.4    
 1778  756 -3.243 6271.8    
 1813  774 -2.377 6272.6    
 1784  758 -3.255 6287.9    
 1821  847 -2.216 6298.7    
  752 1804 -3.117 6314.7    
 1809  770 -1.375 6314.7    
 1809  769 -2.896 6316.6    
 1809  768 -1.960 6322.2    
  750 1790 -3.910 6327.6    
 1809  767 -1.375 6339.1    
 1823  845 -3.056 6347.3    
 1810  770 -2.666 6350.5    
 1811  769 -1.726 6360.8    
  753 1804 -4.228 6364.6    
 1811  768 -1.573 6366.5    
 1786  759 -2.496 6370.3    
 1810  767 -3.081 6375.2    
 1809  766 -1.771 6378.3    
 1814  784 -2.818 6381.1    
 1809  764 -1.756 6384.7    
 1827  861 -2.952 6386.4    
 1809  762 -2.045 6414.6    
 1810  766 -3.326 6414.8    
 1810  763 -1.977 6421.5    
 1811  765 -2.054 6424.9    
 1811  764 -3.122 6429.9    
 1827  716 -3.677 6431.6    
 1786  758 -3.493 6432.0    
 1810  762 -3.008 6451.6    
 1806  760 -3.720 6452.7    
 1828  861 -2.621 6465.2    
 1819  843 -2.925 6468.9    
  752 1803 -3.647 6482.8    
 1820  843 -1.498 6483.9    
 1821  843 -2.970 6497.7    
 1828  860 -3.692 6498.2    
 1820  842 -2.692 6498.3    
 1780  757 -3.297 6502.2    
 1826  850 -2.923 6504.1    
 1821  842 -2.576 6512.2    
 1811  761 -2.961 6516.1    
 1826  848 -2.735 6525.2    
  752 1800 -4.056 6532.9    
 1823  843 -2.686 6546.3    
 1826  846 -2.462 6550.4    
 1788  759 -3.944 6555.8    
 1823  842 -3.645 6561.0    
 1819  839 -3.604 6575.3    
 1813  771 -2.099 6576.4    
 1814  782 -2.106 6580.2    
 1820  840 -2.226 6581.7    
  753 1800 -3.223 6586.3    
 1820  839 -2.540 6590.8    
 1812  769 -1.674 6592.5    
 1812  768 -1.520 6598.6    
 1820  836 -2.259 6610.8    
 1814  781 -3.953 6614.1    
 1821  838 -2.258 6614.6    
 1788  758 -3.227 6621.1    
 1819  834 -2.970 6624.0    
 1820  835 -1.813 6629.6    
 1814  778 -1.610 6635.1    
  750 1787 -5.672 6639.7    
 1824  842 -2.785 6642.2    
  750 1786 -3.114 6643.6    
 1814  777 -2.870 6647.8    
 1823  839 -2.762 6655.2    
 1812  765 -2.191 6661.3    
 1812  764 -2.972 6666.7    
 1827  844 -3.001 6671.6    
 1823  836 -2.866 6675.6    
 1828  851 -2.759 6676.0    
  758 1929 -3.424 6680.1    
 1790  759 -4.790 6690.8    
 1828  849 -3.386 6694.6    
 1828  848 -2.651 6698.4    
 1813  769 -2.676 6700.9    
  756 1914 -2.601 6710.3    
  754 1800 -3.991 6711.6    
  753 1799 -4.876 6716.1    
 1831  716 -2.438 6720.5    
 1821  833 -3.435 6731.5    
 1782  757 -4.047 6733.7    
 1832  860 -3.033 6739.6    
 1821  832 -3.432 6742.0    
 1814  775 -3.488 6742.6    
 1824  838 -2.534 6748.8    
 1834  863 -1.805 6752.0    
 1826  843 -1.782 6763.7    
  751 1792 -1.922 6767.8    
  757 1918 -2.118 6772.2    
 1792  759 -1.274 6772.3    
 1825  841 -1.802 6782.5    
 1825  840 -2.482 6791.2    
 1835  862 -3.000 6794.5    
 1815  784 -3.533 6798.4    
 1829  851 -2.458 6802.5    
 1829  850 -2.465 6802.7    
 1825  837 -1.401 6813.6    
 1835  861 -1.642 6827.4    
  759 1927 -2.638 6831.7    
 1837  862 -2.857 6836.3    
 1792  758 -1.851 6842.0    
  759 1926 -2.433 6845.5    
 1793  759 -3.381 6850.4    
 1829  847 -2.855 6851.2    
 1826  841 -1.506 6861.2    
  752 1796 -5.491 6869.4    
 1826  840 -1.548 6870.1    
 1813  761 -3.241 6873.4    
 1783  756 -3.170 6876.7    
 1826  839 -2.671 6880.0    
 1819  820 -2.659 6885.8    
 1826  836 -2.021 6901.9    
 1820  820 -1.352 6902.8    
 1837  860 -1.591 6906.8    
  753 1797 -2.812 6914.6    
 1821  820 -3.259 6918.4    
 1832  850 -2.527 6931.3    
 1826  834 -2.051 6933.5    
 1828  843 -1.991 6950.0    
 1832  849 -3.098 6951.2    
  756 1907 -3.144 6953.2    
 1795  759 -2.227 6955.0    
 1832  848 -2.634 6955.2    
 1828  842 -2.435 6966.5    
 1823  820 -2.561 6973.5    
  756 1906 -3.453 6974.2    
  756 1905 -3.103 6977.0    
 1831  844 -2.551 6983.0    
 1833  850 -2.334 6984.0    
  752 1795 -3.883 7001.5    
 1833  849 -2.666 7004.2    
 1819  816 -2.736 7004.5    
 1833  848 -1.645 7008.3    
 1819  815 -2.440 7022.4    
 1815  783 -1.931 7023.7    
 1815  782 -1.329 7024.9    
 1795  758 -3.113 7028.6    
  752 1794 -4.272 7029.0    
 1786  757 -2.525 7030.0    
 1819  814 -2.260 7032.2    
 1787  757 -2.761 7034.4    
 1833  846 -1.188 7037.4    
 1819  813 -2.183 7049.6    
 1828  840 -2.494 7062.4    
 1835  851 -1.710 7062.8    
  753 1795 -3.862 7063.0    
 1835  850 -1.607 7063.0    
 1815  781 -1.737 7063.5    
 1820  813 -1.420 7067.4    
 1815  779 -2.482 7082.2    
 1835  849 -2.153 7083.7    
 1820  812 -1.094 7095.4    
 1828  836 -2.351 7096.0    
 1837  851 -2.120 7108.0    
 1837  850 -1.882 7108.2    
  752 1793 -3.594 7110.9    
 1835  847 -1.414 7115.3    
 1786  756 -0.750 7122.2    
 1787  756 -3.241 7126.7    
 1837  849 -1.358 7129.1    
 1837  848 -1.280 7133.4    
 1823  813 -2.606 7141.6    
 1838  861 -1.168 7143.1    
 1836  846 -1.908 7150.9    
 1837  845 -1.397 7164.9    
 1796  758 -2.626 7167.0    
 1823  812 -2.256 7170.1    
 1815  776 -2.292 7173.7    
 1797  758 -0.740 7182.0    
 1830  842 -2.138 7186.3    
 1839  862 -2.352 7188.3    
  752 1792 -3.248 7197.0    
 1816  792 -3.841 7197.4    
 1825  819 -2.657 7200.5    
 1816  791 -2.751 7204.8    
 1825  818 -3.070 7210.7    
 1826  820 -1.343 7220.8    
 1839  861 -1.901 7225.1    
 1829  838 -1.910 7226.5    
 1832  843 -2.375 7226.9    
 1840  862 -1.792 7260.2    
  753 1792 -3.139 7261.9    
 1839  860 -1.043 7266.2    
 1833  843 -2.299 7284.2    
 1826  819 -2.307 7289.3    
 1825  814 -1.058 7290.9    
  752 1790 -3.509 7291.4    
 1840  861 -1.215 7297.7    
 1814  770 -2.384 7300.7    
 1825  813 -1.748 7309.6    
 1814  768 -2.828 7310.8    
 1830  838 -2.065 7311.3    
 1830  836 -2.668 7324.1    
 1799  759 -2.006 7327.6    
 1814  767 -2.722 7333.4    
 1821  741 -2.958 7339.7    
 1822  741 -2.715 7341.1    
 1832  840 -2.372 7348.6    
 1826  816 -2.238 7351.4    
 1832  839 -3.256 7359.9    
 1826  814 -0.828 7381.9    
  755 1814 -2.870 7385.2    
 1814  766 -2.345 7385.9    
 1825  811 -0.578 7386.2    
 1835  842 -1.509 7388.9    
 1789  756 -1.712 7393.6    
 1826  813 -0.896 7401.1    
 1832  835 -1.971 7408.4    
 1799  758 -0.841 7409.3    
  754 1792 -2.489 7414.5    
 1833  839 -1.330 7419.3    
 1837  843 -1.701 7419.4    
 1790  757 -1.000 7422.3    
 1828  820 -1.294 7433.5    
 1837  842 -1.726 7438.3    
 1833  836 -3.183 7444.7    
  752 1788 -6.326 7458.8    
 1838  847 -1.922 7458.9    
 1820  806 -3.287 7460.1    
 1833  834 -0.798 7481.5    
 1820  805 -2.551 7488.4    
 1800  759 -2.616 7488.7    
 1839  851 -2.498 7489.3    
 1839  850 -1.490 7489.5    
 1838  844 -1.375 7501.8    
 1839  849 -2.491 7512.8    
 1835  838 -1.241 7521.0    
 1792  757 -0.942 7522.8    
 1790  756 -1.278 7525.1    
 1835  836 -1.971 7534.6    
 1822  804 -1.784 7537.0    
 1836  839 -1.976 7545.7    
 1839  845 -0.867 7552.5    
 1803  759 -0.791 7555.6    
 1837  839 -1.000 7559.6    
 1840  850 -1.764 7567.6    
 1800  758 -0.926 7574.0    
 1837  836 -1.714 7586.0    
 1840  849 -1.098 7591.3    
 1836  834 -1.433 7610.0    
 1791  756 -0.838 7617.0    
 1793  757 -2.164 7619.2    
 1828  813 -1.468 7624.7    
 1828  812 -1.169 7657.2    
 1835  833 -2.374 7672.5    
 1830  820 -3.108 7684.2    
 1835  832 -2.337 7686.2    
  752 1787 -5.536 7709.1    
  752 1786 -2.733 7714.3    
 1794  757 -1.202 7715.6    
 1793  756 -1.233 7727.6    
 1821  803 -1.826 7735.9    
 1795  757 -0.884 7748.9    
 1838  842 -1.876 7760.1    
  753 1786 -2.685 7788.9    
  758 1906 -3.557 7793.1    
 1804  759 -0.884 7797.6    
 1823  803 -2.886 7804.9    
 1794  756 -1.659 7826.8    
 1839  843 -2.802 7835.8    
 1815  769 -1.848 7855.1    
 1839  842 -2.560 7856.9    
 1795  756 -2.733 7861.0    
 1815  768 -1.589 7863.8    
 1826  805 -2.664 7864.0    
  759 1906 -3.064 7885.6    
 1815  767 -2.474 7890.0    
 1804  758 -2.381 7890.2    
 1838  838 -1.832 7906.0    
 1835  820 -1.996 7916.2    
 1796  757 -2.381 7917.4    
 1824  803 -2.880 7920.1    
 1840  843 -2.218 7921.3    
 1840  842 -1.636 7942.9    
 1815  765 -2.465 7953.0    
 1836  820 -2.610 7957.5    
 1832  813 -2.333 7959.4    
 1815  764 -2.751 7960.7    
 1833  816 -2.872 7970.4    
 1837  820 -1.921 7973.0    
 1839  839 -1.608 7992.4    
 1833  815 -2.909 7993.6    
 1832  812 -2.020 7994.8    
 1833  814 -3.065 8006.3    
  753 1784 -5.942 8011.3    
 1805  759 -4.210 8012.9    
 1839  836 -2.056 8021.9    
 1827  804 -2.454 8025.7    
 1833  813 -2.646 8028.9    
  758 1904 -2.892 8030.2    
 1796  756 -4.768 8034.6    
 1836  819 -3.262 8040.8    
 1798  757 -4.610 8063.6    
 1838  833 -3.187 8073.6    
 1828  806 -3.119 8083.8    
 1838  832 -2.616 8088.7    
 1815  761 -2.750 8093.3    
 1829  741 -3.420 8100.8    
  752 1782 -6.462 8105.7    
 1826  803 -2.260 8115.9    
 1836  816 -3.042 8116.4    
 1828  805 -2.537 8117.0    
  759 1904 -2.563 8128.4    
 1836  815 -2.560 8140.4    
  759 1903 -2.308 8152.5    
 1836  814 -1.911 8153.7    
 1835  812 -2.276 8170.5    
 1836  813 -1.792 8177.1    
 1839  833 -3.053 8178.4    
  753 1782 -6.078 8188.1    
 1819  801 -4.590 8203.3    
 1830  741 -4.213 8207.5    
 1819  800 -3.548 8210.6    
 1799  757 -3.966 8214.3    
 1820  801 -3.808 8227.4    
 1837  812 -3.179 8231.0    
 1820  800 -2.374 8234.8    
 1821  801 -3.014 8249.6    
 1819  798 -4.546 8252.2    
 1841  851 -3.885 8257.4    
 1841  850 -2.948 8257.7    
 1829  806 -4.004 8270.0    
 1840  833 -3.833 8271.6    
 1822  799 -4.144 8278.6    
 1819  795 -4.126 8279.6    
 1832  741 -4.475 8283.9    
 1840  832 -2.808 8287.4    
 1821  798 -4.025 8299.1    
 1829  805 -3.943 8304.8    
 1821  796 -4.499 8321.6    
 1844  863 -3.831 8322.0    
 1823  801 -4.291 8328.1    
 1841  847 -3.217 8329.2    
  756 1872 -1.746 8330.5    
 1799  756 -4.283 8340.4    
  756 1871 -2.654 8371.2    
  758 1891 -1.662 8372.3    
  756 1870 -1.694 8374.1    
 1828  803 -2.483 8385.6    
 1844  861 -2.429 8394.1    
 1823  797 -4.498 8401.0    
 1823  796 -4.766 8401.4    
  756 1868 -3.500 8415.2    
 1800  757 -2.522 8417.2    
  758 1889 -2.513 8450.4    
 1839  820 -2.077 8455.9    
  757 1872 -3.705 8460.3    
  752 1780 -6.275 8468.6    
 1835  741 -3.157 8472.7    
  759 1891 -2.799 8479.1    
 1831  804 -2.871 8480.7    
  758 1888 -2.782 8494.6    
 1832  805 -3.094 8497.3    
 1803  757 -2.646 8501.8    
  757 1871 -1.941 8502.3    
  759 1890 -1.948 8532.0    
 1837  741 -2.257 8537.8    
  757 1869 -2.250 8540.7    
  756 1866 -2.469 8542.4    
  757 1868 -1.821 8547.7    
  759 1889 -2.173 8559.2    
 1825  800 -2.191 8565.4    
 1819  792 -3.609 8569.5    
 1819  791 -2.314 8579.9    
 1829  803 -2.293 8586.2    
 1802  756 -3.966 8598.9    
  759 1888 -2.523 8604.6    
 1820  791 -1.306 8606.4    
 1821  792 -2.075 8620.1    
 1838  812 -3.081 8626.9    
 1803  756 -2.538 8637.0    
 1835  806 -2.944 8658.0    
  757 1866 -3.414 8678.9    
 1841  843 -2.978 8680.7    
 1826  801 -3.352 8683.1    
 1826  800 -2.276 8691.3    
 1835  805 -3.081 8696.1    
 1843  850 -3.481 8700.7    
  755 1810 -4.445 8702.5    
 1823  792 -3.112 8705.8    
 1830  803 -2.618 8706.1    
 1841  842 -3.673 8706.6    
 1823  791 -3.210 8716.6    
 1837  806 -3.872 8726.0    
 1843  849 -3.791 8732.2    
 1835  804 -3.580 8734.7    
 1826  798 -4.090 8738.0    
 1836  805 -3.159 8745.9    
 1839  812 -3.801 8746.7    
 1844  851 -3.500 8752.9    
 1837  805 -3.314 8764.7    
 1826  795 -3.978 8768.8    
  755 1809 -3.801 8770.7    
 1843  847 -3.310 8780.2    
 1837  804 -1.414 8803.9    
 1804  757 -1.882 8809.4    
 1844  847 -3.356 8833.6    
 1824  792 -3.148 8849.4    
 1807  759 -0.873 8862.5    
 1833  803 -1.280 8877.0    
 1841  838 -2.883 8890.7    
 1841  836 -3.663 8909.7    
 1846  851 -3.901 8922.1    
 1827  794 -4.716 8929.7    
 1804  756 -3.417 8954.7    
 1808  759 -1.739 8965.9    
 1825  791 -0.996 8968.1    
 1807  758 -3.032 8982.3    
 1828  800 -3.214 9001.4    
 1835  803 -1.630 9005.1    
 1838  809 -4.151 9023.7    
 1838  808 -3.687 9033.9    
  752 1778 -7.247 9042.3    
 1821  789 -4.199 9047.1    
 1822  789 -4.133 9049.3    
 1828  798 -4.284 9051.5    
 1836  803 -1.995 9058.5    
 1837  803 -1.375 9078.7    
  755 1808 -5.019 9080.2    
 1805  757 -3.130 9085.2    
 1839  741 -2.055 9093.9    
 1826  792 -2.368 9094.5    
 1826  791 -1.064 9106.3    
 1816  784 -4.219 9134.3    
 1839  809 -3.623 9154.8    
 1838  806 -2.970 9172.2    
  755 1806 -4.999 9196.2    
 1840  741 -1.997 9209.3    
 1829  801 -3.351 9223.6    
 1838  804 -1.134 9258.3    
 1840  809 -3.339 9271.7    
 1809  759 -3.094 9289.6    
 1839  806 -3.163 9307.7    
 1845  843 -3.628 9333.9    
 1839  805 -3.353 9351.7    
 1811  759 -2.455 9385.6    
 1839  804 -1.068 9396.5    
 1828  792 -2.726 9434.6    
 1828  791 -1.675 9447.2    
 1832  801 -4.830 9461.7    
 1844  838 -3.109 9467.7    
 1840  805 -4.027 9473.8    
 1840  804 -0.937 9519.7    
 1811  758 -1.470 9520.0    
 1833  801 -2.367 9560.1    
 1833  798 -3.269 9626.7    
  758 1869 -3.115 9628.3    
 1848  860 -3.136 9642.8    
 1829  792 -2.207 9689.2    
 1835  801 -2.959 9708.9    
 1839  803 -1.795 9710.1    
 1835  799 -3.348 9746.5    
  759 1869 -3.638 9769.8    
 1836  801 -3.099 9771.0    
 1835  798 -3.462 9777.5    
 1836  800 -3.624 9781.3    
 1837  801 -2.548 9794.4    
 1837  800 -3.566 9804.8    
 1835  796 -3.773 9808.7    
 1835  794 -3.581 9816.2    
 1837  799 -3.808 9832.7    
 1840  803 -2.686 9841.7    
 1830  792 -2.606 9842.2    
 1837  798 -2.984 9864.3    
 1816  775 -3.260 9893.5    
 1812  759 -1.948 9898.9    
 1828  790 -3.173 9899.2    
 1852  861 -2.828 9912.9    
 1842  820 -3.570 9924.0    
 1832  792 -3.578 9952.3    
 1832  791 -2.665 9966.4    
 1812  758 -2.884 10049.    
 1833  792 -1.355 10061.    
 1853  861 -2.331 10065.    
 1833  791 -2.643 10076.    
 1854  861 -2.552 10076.    
 1813  759 -1.948 10145.    
 1807  757 -1.133 10193.    
 1835  792 -1.480 10226.    
 1836  792 -2.056 10295.    
 1813  758 -1.358 10303.    
 1836  791 -2.156 10310.    
 1837  792 -1.407 10321.    
 1808  757 -1.827 10330.    
 1820  788 -3.474 10359.    
 1806  756 -1.747 10379.    
 1838  799 -2.870 10403.    
 1820  787 -2.473 10439.    
 1832  790 -3.886 10471.    
 1838  794 -3.357 10482.    
 1808  756 -2.034 10531.    
 1839  801 -3.231 10533.    
 1839  799 -3.188 10578.    
 1841  805 -3.130 10581.    
 1853  851 -2.564 10585.    
 1853  850 -2.599 10585.    
 1854  851 -3.361 10597.    
 1823  787 -3.769 10602.    
 1820  786 -4.444 10613.    
 1839  798 -3.152 10614.    
 1816  772 -4.860 10617.    
 1821  786 -3.375 10650.    
 1839  797 -3.024 10650.    
 1822  786 -2.950 10653.    
  770 1924 -3.671 10657.    
 1848  843 -3.524 10672.    
  766 1923 -3.203 10680.    
 1840  801 -2.645 10688.    
 1853  847 -2.792 10703.    
 1848  842 -2.969 10711.    
 1849  843 -2.541 10722.    
 1840  799 -2.636 10734.    
 1855  850 -2.500 10748.    
 1809  757 -3.010 10762.    
 1835  790 -2.540 10774.    
 1823  786 -3.895 10781.    
  767 1923 -3.284 10791.    
 1855  849 -3.275 10796.    
 1855  848 -2.949 10806.    
 1840  796 -3.553 10810.    
 1835  789 -2.687 10833.    
  768 1923 -2.827 10841.    
  770 1923 -4.277 10863.    
 1811  757 -1.945 10891.    
 1809  756 -1.513 10980.    
 1824  786 -3.206 11003.    
 1841  803 -3.113 11042.    
 1810  756 -2.466 11089.    
 1811  756 -2.518 11114.    
 1859  861 -2.637 11139.    
 1816  770 -3.896 11144.    
 1839  792 -1.826 11145.    
 1842  805 -3.042 11181.    
 1826  787 -2.531 11184.    
  755 1803 -2.870 11197.    
 1816  767 -4.127 11220.    
 1844  807 -3.151 11233.    
 1843  806 -3.205 11255.    
  755 1802 -5.216 11261.    
 1859  716 -4.124 11277.    
  767 1922 -4.054 11279.    
 1853  843 -3.257 11291.    
 1846  741 -3.889 11297.    
 1817  769 -5.058 11305.    
 1840  792 -2.871 11319.    
 1843  805 -3.273 11319.    
  768 1922 -3.175 11333.    
  755 1801 -6.293 11334.    
 1853  842 -2.710 11335.    
  770 1922 -4.376 11357.    
 1816  764 -4.405 11363.    
 1843  804 -3.684 11385.    
 1846  808 -2.876 11407.    
  772 1923 -2.817 11415.    
 1852  838 -2.768 11446.    
 1819  784 -3.841 11464.    
 1844  804 -2.360 11475.    
 1855  843 -1.784 11476.    
 1820  784 -2.899 11511.    
 1821  784 -2.261 11554.    
 1845  805 -2.959 11567.    
 1812  757 -1.905 11589.    
 1814  759 -2.087 11593.    
 1828  788 -3.038 11602.    
 1853  838 -2.481 11649.    
 1838  789 -2.033 11650.    
 1827  786 -3.183 11657.    
 1854  838 -3.362 11664.    
 1853  836 -3.215 11681.    
  757 1865 -2.672 11688.    
 1828  787 -2.274 11703.    
 1823  784 -3.334 11709.    
  756 1864 -2.727 11736.    
 1847  808 -2.765 11759.    
 1846  804 -2.048 11767.    
 1855  840 -3.154 11786.    
 1839  790 -3.148 11799.    
 1852  833 -2.803 11800.    
 1855  839 -2.428 11815.    
 1812  756 -2.559 11841.    
 1843  803 -2.504 11849.    
 1848  820 -3.183 11857.    
  775 1927 -2.597 11859.    
 1861  861 -1.849 11861.    
 1849  820 -2.745 11918.    
 1858  847 -2.777 11920.    
 1813  757 -2.582 11928.    
  765 1918 -2.922 11929.    
 1855  835 -2.593 11941.    
  772 1922 -1.975 11962.    
 1824  784 -2.852 11970.    
 1840  790 -3.015 11994.    
  757 1864 -1.546 11995.    
 1854  833 -2.673 12032.    
 1853  832 -3.108 12050.    
 1840  789 -2.435 12067.    
 1863  861 -1.740 12093.    
 1849  819 -1.144 12106.    
 1820  782 -3.411 12175.    
  783 1928 -3.145 12176.    
 1841  799 -3.391 12178.    
  774 1923 -3.228 12208.    
  756 1862 -1.358 12217.    
 1821  782 -2.692 12224.    
  762 1913 -1.794 12243.    
 1841  796 -2.817 12275.    
  781 1927 -2.846 12278.    
 1820  781 -4.574 12292.    
  762 1912 -2.776 12300.    
  762 1911 -3.243 12301.    
  762 1910 -3.047 12301.    
 1821  781 -3.125 12342.    
  763 1913 -2.525 12352.    
 1849  814 -2.031 12364.    
 1820  778 -2.726 12365.    
  756 1861 -2.395 12367.    
  775 1923 -2.654 12389.    
 1823  782 -3.366 12397.    
  757 1863 -2.489 12402.    
  763 1912 -2.528 12411.    
  763 1910 -2.754 12412.    
 1841  793 -2.717 12416.    
 1849  813 -2.530 12418.    
 1826  784 -2.269 12423.    
  763 1909 -0.874 12424.    
  763 1908 -1.770 12424.    
  766 1912 -0.877 12436.    
  766 1911 -1.681 12436.    
  777 1925 -0.858 12440.    
  778 1924 -0.863 12485.    
 1864  861 -2.639 12507.    
 1832  787 -2.695 12510.    
  767 1910 -1.044 12589.    
 1823  778 -2.712 12594.    
  770 1913 -2.089 12624.    
  768 1911 -0.951 12655.    
  757 1861 -1.668 12656.    
 1819  775 -2.637 12685.    
  770 1910 -1.433 12686.    
  770 1908 -0.988 12699.    
 1820  775 -1.297 12743.    
 1861  847 -2.357 12758.    
 1832  786 -3.767 12761.    
 1824  781 -3.216 12817.    
 1835  788 -2.354 12823.    
 1862  848 -3.947 12833.    
  760 1898 -2.176 12854.    
  763 1905 -2.834 12856.    
 1855  820 -2.030 12857.    
 1865  861 -2.410 12859.    
  772 1917 -2.096 12866.    
  760 1894 -2.548 12885.    
  784 1928 -2.135 12918.    
 1842  800 -2.765 12931.    
  755 1794 -3.477 12932.    
 1824  777 -2.447 12944.    
 1835  787 -2.458 12946.    
 1837  788 -3.175 12972.    
 1823  775 -2.774 12986.    
  768 1907 -2.398 13034.    
 1842  798 -2.498 13035.    
  775 1922 -2.542 13036.    
  757 1860 -1.978 13037.    
 1815  759 -1.707 13048.    
 1836  787 -2.745 13057.    
  770 1907 -3.343 13066.    
 1828  784 -2.888 13066.    
  774 1921 -2.134 13074.    
 1842  796 -2.982 13090.    
 1843  801 -2.838 13098.    
 1837  787 -2.626 13098.    
  768 1905 -2.350 13118.    
 1825  778 -3.070 13125.    
  774 1920 -1.925 13156.    
 1863  844 -2.146 13159.    
 1843  799 -2.615 13166.    
  784 1927 -2.225 13171.    
  755 1793 -4.855 13212.    
 1835  786 -2.837 13214.    
 1860  842 -3.504 13247.    
  756 1859 -1.829 13264.    
 1855  816 -3.365 13277.    
 1843  796 -2.820 13280.    
 1844  799 -3.045 13287.    
 1843  794 -2.865 13294.    
 1848  742 -3.146 13309.    
 1815  758 -3.546 13309.    
 1864  851 -3.017 13320.    
 1864  850 -2.529 13321.    
 1837  786 -1.669 13373.    
 1857  833 -2.449 13391.    
  777 1922 -2.854 13405.    
 1864  848 -2.572 13410.    
 1826  778 -3.581 13424.    
 1857  832 -1.968 13432.    
  762 1903 -2.355 13438.    
 1855  813 -1.959 13440.    
  772 1911 -2.425 13445.    
 1843  793 -3.060 13446.    
  785 1926 -2.879 13493.    
  784 1925 -3.251 13495.    
  764 1904 -2.536 13505.    
 1855  812 -1.560 13541.    
 1825  775 -1.050 13553.    
 1829  784 -2.281 13560.    
 1859  833 -1.800 13579.    
  757 1859 -2.149 13596.    
  766 1903 -3.053 13601.    
 1861  843 -2.730 13602.    
 1848  806 -1.718 13602.    
 1858  832 -1.694 13614.    
 1845  796 -2.363 13623.    
 1845  794 -3.449 13637.    
 1861  842 -2.150 13665.    
  760 1887 -0.308 13722.    
  779 1921 -1.390 13740.    
  761 1893 -2.916 13766.    
  761 1892 -2.282 13768.    
 1849  805 -1.772 13778.    
  762 1902 -0.335 13783.    
  780 1921 -0.350 13792.    
  758 1865 -0.667 13825.    
  760 1886 -0.225 13827.    
  784 1923 -0.669 13828.    
  755 1790 -3.348 13850.    
 1826  775 -1.092 13871.    
  772 1907 -0.471 13873.    
 1854  810 -1.533 13876.    
  774 1917 -0.169 13883.    
  780 1920 -0.131 13883.    
  774 1916 -0.321 13922.    
 1828  782 -3.012 13929.    
  762 1901 -0.586 13932.    
  774 1915 -0.546 13942.    
 1852  809 -2.540 13946.    
  762 1899 -1.074 13956.    
  772 1906 -0.564 13957.    
  762 1898 -0.413 13967.    
  772 1905 -0.429 13968.    
 1814  757 -2.960 13980.    
  762 1894 -0.760 14003.    
  779 1919 -1.904 14010.    
 1843  792 -2.335 14057.    
  780 1919 -0.824 14064.    
 1832  784 -3.000 14081.    
  760 1885 -0.395 14100.    
  759 1865 -2.339 14119.    
 1861  838 -1.919 14124.    
  766 1898 -2.152 14142.    
 1828  778 -2.362 14178.    
  766 1894 -2.791 14179.    
 1860  833 -1.891 14187.    
  775 1914 -0.373 14205.    
  786 1929 -1.504 14206.    
 1823  772 -3.426 14262.    
  770 1902 -1.886 14269.    
 1854  809 -1.746 14271.    
  786 1928 -0.924 14273.    
 1833  784 -1.286 14300.    
 1839  788 -2.729 14301.    
 1814  756 -3.330 14350.    
 1859  820 -2.828 14362.    
 1855  741 -2.910 14392.    
 1852  805 -2.651 14409.    
  768 1899 -3.727 14414.    
  770 1901 -2.205 14427.    
 1838  786 -1.173 14451.    
 1839  787 -2.595 14455.    
 1854  807 -1.883 14464.    
  770 1898 -1.760 14465.    
 1848  803 -2.983 14479.    
 1829  783 -3.351 14487.    
 1829  782 -2.276 14492.    
  762 1890 -1.961 14501.    
  770 1894 -2.675 14504.    
 1862  834 -2.747 14513.    
 1852  804 -2.826 14515.    
 1864  842 -2.522 14530.    
  759 1864 -0.878 14569.    
  786 1927 -1.556 14582.    
 1855  742 -2.196 14583.    
 1840  788 -2.410 14588.    
 1853  806 -2.025 14623.    
 1835  784 -1.270 14635.    
  784 1922 -0.224 14639.    
  786 1926 -1.667 14646.    
 1829  781 -2.699 14657.    
 1861  833 -2.091 14668.    
 1828  775 -1.418 14678.    
  778 1914 -2.939 14706.    
  775 1913 -0.285 14733.    
  780 1916 -1.739 14739.    
 1836  784 -1.984 14777.    
 1839  786 -1.327 14790.    
 1837  784 -1.345 14831.    
  758 1863 -0.501 14835.    
  775 1908 -1.083 14835.    
  756 1855 -0.421 14872.    
 1820  770 -1.654 14896.    
 1865  843 -2.682 14930.    
 1821  769 -2.880 14979.    
  762 1887 -2.006 14998.    
 1864  839 -1.998 15000.    
 1865  842 -2.233 15007.    
 1821  768 -2.700 15011.    
 1820  767 -1.702 15032.    
 1855  805 -2.098 15049.    
 1863  832 -2.116 15077.    
 1840  786 -1.209 15098.    
 1864  836 -2.488 15104.    
  757 1856 -3.361 15117.    
 1831  780 -2.819 15119.    
  771 1893 -0.800 15136.    
 1829  776 -3.203 15140.    
  774 1906 -2.772 15161.    
  759 1863 -1.246 15174.    
  756 1853 -1.793 15195.    
  758 1861 -0.978 15200.    
 1859  812 -2.461 15222.    
 1823  770 -3.426 15229.    
 1843  789 -2.933 15229.    
  772 1902 -2.004 15236.    
 1820  766 -3.591 15254.    
 1852  803 -2.365 15277.    
  757 1855 -1.588 15291.    
 1820  764 -2.157 15291.    
 1826  772 -3.407 15336.    
  775 1907 -1.853 15339.    
 1821  765 -3.392 15339.    
 1823  767 -3.089 15372.    
 1819  762 -3.213 15379.    
 1832  778 -2.695 15380.    
 1844  789 -2.190 15391.    
  786 1923 -2.841 15392.    
  772 1901 -2.865 15417.    
  755 1787 -5.502 15438.    
  775 1905 -1.839 15455.    
 1820  762 -2.166 15464.    
  772 1896 -3.920 15473.    
  772 1895 -3.250 15501.    
 1830  776 -4.363 15517.    
  756 1852 -1.368 15555.    
  759 1861 -0.481 15555.    
 1823  766 -3.041 15604.    
  757 1854 -0.682 15606.    
  757 1853 -0.574 15633.    
 1864  833 -2.724 15669.    
 1835  783 -2.799 15721.    
 1835  782 -1.457 15727.    
  758 1860 -1.079 15754.    
 1834  780 -2.445 15794.    
 1846  790 -2.605 15795.    
 1823  762 -2.747 15823.    
 1862  820 -2.496 15832.    
  777 1907 -3.787 15853.    
 1834  779 -3.273 15864.    
 1846  789 -2.549 15922.    
 1835  781 -1.852 15922.    
  772 1891 -2.420 15931.    
 1837  783 -3.521 15946.    
 1837  782 -3.141 15952.    
 1832  775 -1.943 15970.    
 1830  774 -3.164 15989.    
 1825  770 -2.967 16014.    
  757 1852 -1.231 16014.    
 1857  741 -1.288 16033.    
 1831  774 -2.518 16088.    
 1835  777 -2.155 16118.    
  784 1914 -1.975 16129.    
  759 1860 -0.702 16136.    
 1815  757 -2.159 16153.    
 1862  819 -2.223 16165.    
  774 1903 -3.550 16179.    
 1833  775 -2.755 16252.    
 1857  808 -2.066 16257.    
 1859  741 -1.274 16305.    
  756 1850 -0.623 16311.    
  756 1849 -0.257 16363.    
 1848  801 -1.098 16389.    
 1848  800 -2.165 16418.    
 1826  770 -2.623 16459.    
 1825  763 -4.133 16473.    
 1857  807 -3.330 16473.    
 1862  816 -3.548 16474.    
  756 1848 -1.655 16481.    
 1835  776 -2.561 16493.    
 1848  799 -1.914 16496.    
  775 1903 -1.817 16499.    
 1858  808 -0.717 16524.    
 1849  800 -1.110 16536.    
 1859  742 -0.562 16550.    
 1850  801 -2.028 16560.    
  757 1851 -1.408 16584.    
  758 1858 -0.822 16589.    
 1839  784 -1.809 16593.    
 1826  767 -2.769 16627.    
 1862  814 -1.858 16628.    
 1825  762 -2.301 16672.    
 1848  797 -0.457 16674.    
 1849  798 -1.797 16706.    
 1864  820 -2.188 16720.    
 1862  813 -1.966 16726.    
 1858  807 -0.653 16747.    
 1850  798 -1.006 16761.    
 1849  797 -1.994 16796.    
  757 1850 -1.116 16815.    
 1849  795 -0.481 16819.    
 1850  796 -0.859 16853.    
  758 1857 -0.362 16867.    
 1836  775 -2.208 16871.    
 1850  794 -2.471 16875.    
 1851  799 -1.772 16904.    
  774 1899 -2.343 16936.    
 1826  763 -1.719 16945.    
  757 1848 -0.241 16996.    
 1857  804 -2.248 16998.    
 1819  760 -2.825 16998.    
  759 1859 -0.320 17001.    
  774 1892 -3.926 17037.    
 1827  769 -4.976 17049.    
  760 1867 -4.131 17053.    
 1863  812 -4.386 17061.    
 1851  796 -3.538 17092.    
 1829  772 -2.747 17106.    
 1851  794 -1.660 17114.    
 1850  793 -0.897 17121.    
 1826  762 -2.194 17156.    
 1854  802 -1.726 17181.    
  775 1901 -3.493 17249.    
  775 1898 -1.769 17303.    
  759 1857 -1.136 17307.    
  761 1876 -0.445 17357.    
  761 1875 -1.112 17361.    
 1851  793 -2.393 17367.    
  761 1874 -0.418 17399.    
  761 1873 -0.701 17402.    
 1860  809 -0.756 17407.    
 1852  801 -1.321 17419.    
 1860  808 -1.519 17446.    
  783 1904 -2.953 17455.    
 1838  783 -1.239 17502.    
 1852  799 -1.474 17541.    
  776 1893 -0.773 17605.    
 1828  770 -1.652 17608.    
  776 1892 -0.064 17608.    
 1841  787 -2.222 17618.    
 1852  798 -2.481 17642.    
  777 1902 -3.665 17658.    
  762 1884 -1.598 17674.    
  762 1883 -1.968 17675.    
  762 1882 -2.673 17677.    
 1860  807 -0.815 17695.    
  784 1906 -2.722 17743.    
 1852  796 -1.687 17743.    
 1838  781 -1.784 17752.    
  762 1877 -1.952 17756.    
  784 1905 -2.157 17761.    
 1852  794 -1.686 17768.    
 1838  780 -2.676 17782.    
 1828  767 -1.672 17799.    
 1838  779 -1.563 17870.    
 1853  801 -0.753 17894.    
 1861  741 -0.499 17900.    
  777 1901 -1.560 17902.    
  763 1884 -0.866 17903.    
  764 1881 -1.333 17909.    
  777 1899 -1.118 17942.    
  764 1880 -1.027 17949.    
  764 1879 -0.377 17952.    
  766 1883 -0.984 17957.    
  766 1882 -1.456 17959.    
  763 1878 -0.051 17987.    
  765 1880 -0.262 17988.    
  764 1876 -0.458 18000.    
  777 1895 -0.028 18015.    
 1853  799 -0.908 18022.    
  778 1900 -0.982 18031.    
  766 1877 -0.046 18041.    
  765 1875 -0.458 18043.    
  764 1874 -1.061 18045.    
  778 1898 -0.557 18054.    
 1854  799 -0.912 18058.    
  779 1897 -0.112 18103.    
  778 1895 -1.674 18108.    
  778 1894 -0.189 18114.    
 1861  809 -0.869 18138.    
  781 1901 -2.101 18151.    
 1828  764 -2.183 18163.    
 1861  808 -1.801 18179.    
  779 1893 -0.777 18182.    
  779 1892 -1.478 18185.    
  781 1899 -1.076 18192.    
  780 1897 -1.149 18194.    
  781 1896 -0.128 18228.    
 1853  794 -1.358 18262.    
  767 1883 -0.648 18274.    
  767 1882 -0.412 18276.    
  767 1881 -1.248 18277.    
 1854  794 -0.840 18299.    
  781 1892 -0.727 18309.    
  767 1880 -1.679 18319.    
  767 1879 -0.502 18322.    
  764 1872 -2.070 18352.    
 1855  801 -2.502 18364.    
  767 1876 -1.209 18372.    
 1855  800 -0.593 18401.    
  768 1883 -0.357 18417.    
  768 1882 -0.445 18419.    
  783 1901 -0.676 18419.    
  768 1881 -0.650 18420.    
 1863  741 -0.520 18434.    
  782 1900 -0.073 18449.    
  783 1899 -0.223 18462.    
  769 1881 -0.219 18467.    
  770 1884 -0.131 18479.    
  770 1883 -0.934 18481.    
  770 1882 -0.858 18483.    
  782 1896 -0.713 18490.    
  783 1897 -0.683 18497.    
  769 1880 -0.562 18510.    
  769 1879 -0.891 18513.    
  770 1879 -1.542 18529.    
 1829  769 -2.812 18533.    
  763 1870 -1.754 18562.    
  769 1876 -1.372 18564.    
  769 1875 -1.440 18568.    
  770 1877 -2.344 18570.    
  782 1892 -1.981 18574.    
  783 1893 -1.818 18579.    
 1829  768 -2.632 18581.    
 1854  793 -1.479 18588.    
  777 1891 -1.999 18598.    
 1855  798 -0.704 18611.    
  761 1866 -1.848 18667.    
 1863  809 -1.343 18686.    
  776 1888 -1.908 18706.    
 1855  796 -1.109 18724.    
 1863  808 -0.758 18730.    
  767 1872 -2.097 18739.    
  765 1869 -1.769 18777.    
  766 1868 -1.671 18823.    
  787 1914 -2.129 18839.    
 1835  772 -2.891 18854.    
  777 1890 -3.200 18854.    
  781 1891 -2.109 18866.    
 1840  779 -2.881 18870.    
  768 1872 -3.007 18888.    
  758 1856 -3.795 18894.    
  788 1918 -1.830 18933.    
  770 1872 -1.936 18956.    
  778 1890 -1.636 18957.    
  777 1889 -2.106 18988.    
 1840  777 -1.632 19011.    
 1863  807 -2.348 19018.    
  788 1915 -3.434 19059.    
  762 1867 -3.348 19068.    
 1842  788 -2.873 19073.    
 1829  765 -3.169 19087.    
 1836  772 -3.215 19090.    
  768 1871 -1.921 19099.    
 1830  769 -3.021 19100.    
  781 1890 -2.867 19130.    
 1829  764 -3.461 19131.    
 1838  774 -2.554 19137.    
  782 1891 -2.021 19148.    
  769 1871 -1.680 19150.    
 1830  768 -2.825 19152.    
 1852  792 -2.040 19158.    
 1837  772 -2.674 19179.    
  770 1870 -2.155 19182.    
  781 1889 -2.210 19268.    
 1839  775 -3.494 19281.    
  768 1868 -2.128 19329.    
  769 1869 -2.096 19346.    
 1842  787 -2.129 19347.    
  769 1868 -2.561 19382.    
  770 1868 -2.759 19400.    
  764 1866 -1.594 19412.    
 1864  741 -1.598 19413.    
  782 1890 -2.239 19420.    
  783 1890 -2.531 19429.    
  759 1856 -3.056 19447.    
  765 1866 -2.524 19458.    
 1843  788 -2.265 19479.    
  781 1888 -1.874 19499.    
 1832  770 -2.088 19501.    
  790 1926 -2.182 19554.    
  782 1889 -2.192 19561.    
  783 1889 -1.802 19571.    
  771 1875 -0.271 19597.    
  771 1874 -0.269 19646.    
  758 1854 -1.602 19664.    
 1848  790 -2.627 19672.    
 1864  809 -2.638 19693.    
  758 1853 -1.990 19707.    
 1863  804 -1.676 19721.    
 1853  792 -1.653 19733.    
  759 1855 -1.620 19736.    
 1832  767 -2.195 19736.    
 1864  742 -0.911 19762.    
 1843  787 -2.326 19765.    
  767 1866 -2.049 19846.    
 1833  770 -3.227 19924.    
  770 1867 -2.748 20009.    
  768 1866 -3.028 20014.    
  769 1866 -2.779 20070.    
  772 1883 -2.382 20137.    
  772 1882 -2.808 20139.    
  772 1881 -2.709 20141.    
 1832  764 -2.738 20185.    
  772 1880 -3.599 20192.    
  784 1900 -3.427 20218.    
  786 1907 -3.206 20224.    
 1845  788 -3.360 20226.    
 1851  790 -2.150 20254.    
  759 1854 -2.098 20264.    
 1865  741 -1.450 20275.    
 1840  774 -2.825 20288.    
  759 1853 -2.037 20309.    
  758 1852 -2.863 20317.    
 1855  791 -1.888 20365.    
  786 1906 -3.254 20403.    
 1861  803 -1.876 20455.    
  771 1869 -1.046 20465.    
 1845  787 -1.972 20534.    
 1833  766 -3.918 20571.    
 1865  809 -2.272 20580.    
 1835  769 -1.795 20601.    
 1846  788 -1.953 20626.    
 1833  763 -2.799 20640.    
 1835  768 -1.694 20661.    
 1835  767 -2.912 20843.    
  792 1928 -3.052 20855.    
 1836  770 -2.686 20862.    
  787 1907 -2.385 20887.    
 1841  784 -3.213 20901.    
  759 1852 -1.587 20957.    
 1837  770 -2.367 20969.    
 1837  769 -3.057 20990.    
  785 1893  0.038 21011.    
 1837  768 -2.693 21052.    
  784 1891 -2.273 21060.    
  787 1905 -2.128 21103.    
 1857  801 -2.948 21123.    
 1836  767 -3.092 21131.    
  756 1845 -1.876 21168.    
 1852  790 -1.927 21176.    
  788 1907 -2.881 21216.    
 1837  767 -2.440 21241.    
 1835  765 -2.160 21289.    
 1857  799 -2.650 21302.    
 1835  764 -2.236 21344.    
  784 1890 -2.748 21390.    
 1852  789 -3.328 21403.    
  788 1906 -3.405 21413.    
  791 1927 -2.196 21457.    
  757 1846 -1.899 21570.    
 1859  800 -2.048 21647.    
 1836  763 -1.954 21649.    
 1837  766 -2.238 21687.    
 1837  764 -2.713 21762.    
 1871  861 -2.607 21878.    
 1853  790 -2.687 21881.    
 1854  790 -1.866 21934.    
 1860  802 -1.992 21939.    
 1859  798 -1.926 21939.    
  759 1851 -1.913 21946.    
 1836  762 -2.699 21994.    
  757 1845 -3.022 22026.    
  756 1843 -2.267 22053.    
 1859  797 -2.785 22094.    
 1859  796 -2.239 22097.    
 1837  762 -3.251 22113.    
 1853  789 -2.472 22124.    
 1854  789 -1.845 22178.    
 1838  771 -2.161 22276.    
 1835  761 -2.469 22324.    
 1855  790 -2.041 22588.    
  756 1842 -1.922 22597.    
  785 1888 -0.772 22599.    
  757 1844 -2.221 22628.    
  759 1848 -1.858 22672.    
  796 1928 -2.954 22837.    
  787 1904 -2.783 22907.    
 1840  772 -3.439 22936.    
 1856  790 -2.915 22979.    
  757 1843 -2.057 22986.    
  787 1903 -3.872 23099.    
  799 1928 -2.893 23181.    
 1841  783 -3.111 23187.    
 1841  782 -2.193 23200.    
 1885  864 -0.543 23219.    
  788 1904 -2.432 23303.    
 1860  799 -1.737 23390.    
 1844  785 -3.926 23528.    
  757 1842 -2.456 23578.    
 1841  781 -2.612 23627.    
  796 1927 -3.015 23640.    
  797 1927 -3.383 23643.    
  786 1901 -3.083 23682.    
 1857  792 -2.920 23735.    
  786 1899 -2.621 23752.    
  794 1926 -3.262 23763.    
 1838  769 -2.180 23772.    
 1860  794 -1.511 23795.    
  776 1880 -4.309 23848.    
 1886  864 -0.551 23997.    
 1863  802 -1.875 24009.    
  776 1874 -2.279 24018.    
 1833  760 -3.435 24081.    
 1868  851 -2.504 24125.    
  787 1902 -3.340 24138.    
  775 1872 -2.152 24145.    
 1860  793 -2.585 24286.    
 1887  864 -0.551 24320.    
 1861  801 -1.859 24487.    
 1871  851 -2.374 24494.    
 1871  850 -3.144 24496.    
  775 1870 -2.427 24514.    
  777 1883 -3.046 24596.    
  787 1901 -3.190 24596.    
  777 1882 -3.214 24599.    
  777 1881 -3.181 24601.    
 1839  770 -2.630 24675.    
 1838  765 -2.073 24692.    
 1839  769 -3.261 24705.    
 1861  799 -2.045 24728.    
 1838  764 -3.254 24766.    
  778 1884 -2.987 24769.    
  778 1883 -3.277 24771.    
 1839  768 -2.374 24790.    
 1872  851 -4.174 24849.    
 1872  850 -3.228 24852.    
  778 1879 -4.186 24858.    
  775 1868 -3.403 24870.    
 1839  767 -2.576 25053.    
  781 1881 -2.858 25074.    
 1861  796 -2.290 25133.    
  781 1879 -2.710 25158.    
 1862  800 -1.775 25169.    
 1861  794 -2.326 25182.    
  781 1876 -2.934 25252.    
  781 1874 -3.716 25342.    
  801 1925 -4.017 25360.    
 1836  760 -3.025 25464.    
  756 1841 -2.032 25523.    
 1862  798 -2.497 25565.    
  782 1882 -3.294 25571.    
 1840  769 -2.248 25575.    
  786 1889 -3.108 25620.    
 1840  768 -1.971 25667.    
 1839  766 -1.986 25676.    
 1861  793 -2.561 25732.    
 1863  799 -2.707 25758.    
 1862  797 -2.681 25776.    
 1839  764 -2.836 25780.    
 1862  795 -1.171 25830.    
  797 1923 -2.281 25848.    
  789 1918 -2.137 25979.    
  781 1871 -2.951 26349.    
  778 1868 -3.220 26450.    
 1840  765 -2.594 26643.    
  757 1841 -2.273 26782.    
 1866  843 -2.670 26799.    
 1842  781 -4.234 26846.    
 1863  793 -3.419 26850.    
 1857  790 -1.330 26912.    
  788 1890 -2.353 26959.    
 1843  782 -2.283 27073.    
 1842  778 -2.724 27195.    
 1857  789 -0.792 27280.    
 1864  801 -2.028 27409.    
 1844  783 -2.101 27569.    
 1898  864 -2.464 27626.    
 1843  781 -2.717 27657.    
 1859  790 -0.668 27686.    
 1848  788 -0.563 27773.    
  758 1847 -2.191 27969.    
 1858  789 -0.574 28040.    
 1861  792 -3.410 28068.    
 1844  781 -1.785 28193.    
 1864  797 -1.517 28215.    
 1843  777 -2.591 28255.    
 1850  788 -1.346 28270.    
 1848  787 -1.829 28358.    
 1868  842 -2.747 28406.    
 1844  779 -2.916 28492.    
 1845  783 -3.852 28518.    
 1845  782 -3.163 28537.    
 1870  843 -2.271 28603.    
 1849  787 -0.568 28712.    
  795 1922 -2.968 28764.    
  803 1928 -3.004 28826.    
 1850  787 -0.701 28876.    
 1871  842 -2.444 28919.    
 1851  788 -1.417 28948.    
 1862  791 -3.120 28996.    
  784 1883 -2.907 29095.    
  784 1882 -3.443 29099.    
  784 1881 -3.239 29102.    
 1872  843 -1.815 29123.    
 1865  801 -2.509 29159.    
 1845  781 -3.658 29186.    
  784 1880 -4.199 29209.    
 1846  783 -1.923 29321.    
 1843  776 -3.229 29427.    
 1865  799 -2.915 29501.    
 1845  779 -4.297 29507.    
  800 1922 -3.585 29630.    
 1848  786 -3.856 29679.    
  801 1922 -3.812 29725.    
 1865  798 -4.032 29787.    
 1845  777 -4.440 29854.    
 1888  863 -2.968 29930.    
 1844  776 -2.187 30035.    
 1846  780 -3.153 30114.    
  803 1927 -3.326 30118.    
  758 1846 -2.423 30179.    
 1868  839 -2.981 30262.    
  784 1872 -3.153 30289.    
 1860  790 -0.686 30333.    
 1846  779 -2.159 30367.    
 1889  863 -3.237 30493.    
  785 1875 -0.461 30717.    
 1860  789 -1.292 30802.    
  785 1874 -0.505 30838.    
 1852  788 -1.375 30868.    
 1865  793 -4.446 30941.    
  790 1907 -2.165 30953.    
 1871  838 -2.714 31056.    
  758 1845 -4.477 31080.    
 1845  776 -5.117 31164.    
 1843  774 -5.903 31172.    
 1869  835 -3.746 31191.    
 1872  840 -4.473 31205.    
 1866  833 -3.548 31280.    
 1871  836 -3.518 31288.    
  790 1906 -2.194 31373.    
 1872  839 -2.834 31410.    
 1889  861 -1.892 31485.    
 1852  787 -1.413 31592.    
  759 1846 -2.747 31615.    
  804 1929 -2.805 31664.    
 1844  774 -3.562 31856.    
 1890  861 -1.973 31858.    
  758 1844 -1.931 32291.    
 1853  788 -0.746 32390.    
 1854  788 -0.676 32506.    
 1861  790 -0.651 32623.    
  806 1929 -2.912 32715.    
  785 1869 -0.653 32906.    
 1847  779 -1.756 32991.    
  758 1843 -2.496 33025.    
  791 1913 -2.021 33161.    
 1861  789 -1.410 33165.    
 1853  787 -1.816 33188.    
  784 1866 -3.999 33291.    
 1869  832 -2.923 33474.    
  793 1918 -2.499 33577.    
  791 1912 -3.781 33587.    
  791 1911 -3.366 33589.    
  791 1910 -1.986 33593.    
  791 1908 -1.654 33684.    
  792 1911 -1.281 33750.    
 1891  716 -3.873 33833.    
  759 1844 -3.470 33940.    
 1855  788 -1.847 33963.    
 1871  832 -4.070 34079.    
 1846  774 -4.070 34218.    
 1866  825 -3.041 34303.    
 1866  822 -3.548 34348.    
 1865  792 -3.427 34381.    
 1863  790 -1.172 34440.    
 1867  828 -2.663 34474.    
  794 1918 -2.463 34562.    
  759 1843 -3.134 34752.    
 1855  787 -0.601 34842.    
 1856  788 -3.283 34854.    
  789 1904 -1.841 34981.    
 1863  789 -0.678 35046.    
 1847  776 -1.729 35077.    
  795 1914 -2.800 35146.    
 1854  786 -3.066 35148.    
  797 1914 -4.849 35247.    
  799 1918 -2.988 35455.    
  756 1840 -3.219 35541.    
  790 1904 -1.512 35606.    
 1841  769 -2.960 35642.    
 1889  857 -2.866 35809.    
 1841  768 -2.683 35820.    
 1889  853 -3.408 35886.    
 1889  852 -3.445 35886.    
  790 1903 -1.396 36073.    
  759 1842 -3.266 36124.    
  807 1926 -2.631 36239.    
 1890  859 -3.212 36264.    
 1841  767 -2.109 36371.    
  792 1907 -3.537 36586.    
 1869  825 -3.023 36646.    
  786 1881 -3.805 37017.    
  809 1927 -2.391 37097.    
 1871  826 -3.303 37319.    
  756 1839 -2.469 37371.    
 1841  765 -3.700 37750.    
 1851  785 -1.756 37881.    
 1841  764 -1.953 37924.    
 1848  784 -2.765 37955.    
 1864  790 -1.184 38022.    
  757 1840 -2.329 38030.    
  741 1927 -2.826 38132.    
  795 1913 -1.839 38567.    
 1891  851 -3.236 38798.    
 1891  850 -3.551 38803.    
  805 1923 -2.470 38986.    
 1870  820 -2.521 39058.    
  795 1912 -1.780 39144.    
  797 1912 -0.110 39270.    
  795 1909 -0.126 39271.    
  797 1911 -0.926 39273.    
  795 1908 -1.029 39276.    
  742 1924 -0.350 39508.    
 1874  825 -2.649 39604.    
 1873  821  0.132 39652.    
 1874  822  0.042 39663.    
 1874  821 -0.603 39663.    
 1892  853  0.102 39764.    
  798 1910 -0.285 39778.    
 1893  852  0.132 39781.    
 1877  829 -0.930 39789.    
 1878  828 -0.927 39796.    
 1875  825  0.006 39806.    
 1876  825  0.005 39824.    
 1877  823  0.091 39885.    
 1878  824  0.085 39892.    
 1894  855 -0.063 39903.    
 1895  854  0.103 39932.    
 1879  827 -0.018 40002.    
 1880  826 -0.007 40014.    
 1896  856  0.048 40055.    
 1879  825 -0.465 40062.    
 1897  857  0.081 40066.    
 1880  825 -0.461 40075.    
  800 1913 -1.072 40140.    
 1896  853 -0.874 40152.    
 1881  831  0.014 40177.    
 1882  830 -0.088 40183.    
 1883  831 -0.645 40192.    
 1883  830 -0.692 40192.    
 1899  859 -0.058 40195.    
 1882  829 -0.539 40195.    
 1884  830 -0.667 40198.    
 1898  855 -0.420 40200.    
 1883  829 -0.079 40204.    
 1884  828  0.043 40210.    
 1881  826 -0.527 40216.    
 1900  858  0.073 40218.    
 1882  827 -0.650 40222.    
 1900  856 -0.857 40251.    
 1901  859 -0.518 40397.    
 1901  857 -1.455 40433.    
  810 1926 -1.864 40543.    
  800 1910 -0.658 40776.    
  800 1908 -0.243 40909.    
  801 1911 -0.185 40951.    
 1841  761 -2.142 41133.    
 1870  819 -0.512 41152.    
 1892  850 -3.909 41395.    
  787 1872 -0.234 41496.    
 1844  771 -2.534 41617.    
 1866  812 -2.413 41624.    
 1880  820 -2.938 42091.    
  793 1906 -2.457 42256.    
 1865  789 -1.079 42356.    
  742 1923 -2.370 42503.    
  787 1871 -1.165 42525.    
  789 1891 -0.068 42556.    
  787 1870 -0.102 42598.    
  788 1872 -1.920 42815.    
  757 1838 -2.423 42863.    
 1842  770 -2.028 43419.    
  790 1891 -1.077 43484.    
  787 1868 -2.011 43685.    
  798 1907 -2.315 43771.    
  794 1906 -3.386 43829.    
  788 1871 -0.320 43912.    
  795 1905 -1.658 43941.    
 1885  841 -3.246 43994.    
 1900  846 -3.554 44041.    
 1899  845 -3.573 44069.    
  797 1905 -3.572 44099.    
 1854  785 -1.911 44215.    
  759 1841 -2.766 44231.    
 1870  814 -1.635 44289.    
 1878  819 -2.052 44295.    
 1842  767 -2.211 44602.    
  789 1889 -0.845 44654.    
  798 1905 -2.837 44729.    
 1857  788 -2.871 44781.    
 1884  819 -2.762 44808.    
  790 1890 -0.105 44912.    
  788 1869 -0.451 44958.    
  800 1907 -2.235 44982.    
  788 1868 -0.082 45150.    
  801 1907 -2.784 45202.    
 1903  859 -2.122 45210.    
 1903  857 -2.879 45254.    
 1903  856 -2.956 45254.    
  799 1906 -2.656 45275.    
  790 1889 -0.354 45676.    
 1843  769 -2.252 45681.    
 1846  771 -2.178 45742.    
  789 1888 -0.839 45918.    
 1843  768 -2.131 45976.    
  800 1905 -2.005 45994.    
 1904  857 -2.406 46010.    
  801 1906 -2.777 46105.    
 1904  853 -3.119 46138.    
  801 1905 -2.779 46225.    
 1871  812 -3.163 46230.    
 1872  813 -2.388 46288.    
  790 1888 -0.578 47000.    
 1853  784 -2.548 47137.    
 1844  769 -2.401 47164.    
  787 1866 -0.452 47345.    
 1903  851 -2.590 47505.    
 1872  812 -1.779 47512.    
 1878  814 -3.280 47951.    
 1848  781 -4.128 48016.    
 1887  841 -3.287 48121.    
  767 1865 -5.121 48249.    
 1904  851 -2.580 48340.    
 1904  850 -2.522 48349.    
 1886  837 -3.623 48400.    
 1889  842 -2.323 48470.    
 1884  814 -3.733 48553.    
 1887  840 -2.915 48563.    
 1842  762 -3.550 48628.    
 1859  787 -1.971 48661.    
  762 1864 -3.370 49038.    
  788 1866 -1.062 49070.    
 1848  778 -2.860 49145.    
 1843  765 -2.568 49204.    
  768 1865 -2.937 49254.    
 1890  842 -2.319 49361.    
  791 1901 -3.776 49372.    
 1843  764 -2.817 49499.    
 1850  781 -3.902 49521.    
 1851  783 -2.643 49582.    
  769 1865 -3.421 49596.    
 1887  837 -2.931 49732.    
 1848  777 -3.371 49849.    
 1857  786 -3.422 49953.    
 1876  812 -3.574 50042.    
 1849  778 -3.507 50220.    
  791 1894 -3.270 50283.    
  793 1904 -1.495 50311.    
 1891  843 -2.377 50328.    
 1879  812 -3.781 50418.    
 1855  784 -2.853 50545.    
  792 1895 -3.070 50600.    
  764 1864 -4.140 50860.    
 1866  741 -3.540 50866.    
 1844  765 -2.390 50928.    
  756 1837 -2.601 51030.    
 1891  842 -2.104 51210.    
 1844  764 -3.413 51245.    
  766 1864 -2.176 51271.    
  813 1924 -3.135 51335.    
 1845  767 -2.297 51459.    
 1850  777 -3.385 51472.    
 1851  781 -2.465 51639.    
  756 1836 -2.465 51677.    
 1851  780 -3.706 51895.    
 1846  769 -2.193 52534.    
 1851  779 -2.592 52651.    
  796 1904 -1.330 52772.    
  756 1835 -2.521 53486.    
  798 1904 -1.670 53693.    
  796 1903 -2.041 53804.    
  797 1903 -1.738 53820.    
  767 1864 -4.205 53948.    
 1845  765 -3.120 54263.    
 1845  764 -2.117 54623.    
  799 1904 -1.388 54649.    
  798 1903 -2.185 54762.    
 1843  761 -2.903 55112.    
 1860  788 -1.650 55127.    
 1895  843 -4.193 55160.    
  768 1864 -2.642 55208.    
 1890  839 -2.649 55246.    
  792 1891 -3.274 55486.    
 1905  858 -3.363 55487.    
 1852  783 -2.644 55495.    
 1850  776 -3.071 55497.    
 1852  782 -2.002 55569.    
 1866  807 -2.984 55575.    
  769 1864 -3.225 55638.    
  799 1903 -1.987 55756.    
  801 1904 -1.614 55863.    
 1869  741 -2.637 56194.    
 1901  843 -2.908 56244.    
  757 1837 -3.020 56322.    
  813 1923 -4.013 56508.    
  800 1903 -1.583 56670.    
 1849  775 -2.890 57109.    
 1846  765 -2.224 57246.    
 1844  761 -3.074 57285.    
 1871  741 -2.589 57918.    
 1852  781 -2.361 58084.    
 1851  776 -2.391 58171.    
 1891  838 -1.650 58314.    
 1866  806 -1.263 58364.    
  756 1833 -3.360 58499.    
 1869  809 -2.705 58602.    
  762 1862 -4.160 58693.    
 1874  810 -3.197 58749.    
 1868  742 -2.505 58891.    
 1906  851 -2.176 59179.    
 1906  850 -2.164 59192.    
  757 1835 -2.334 59328.    
 1852  779 -3.283 59367.    
  765 1863 -3.568 59506.    
  795 1902 -2.401 59528.    
  797 1902 -3.609 59819.    
 1918  863 -2.622 59894.    
 1872  741 -2.676 59944.    
  808 1919 -3.314 60073.    
 1866  805 -0.479 60141.    
 1916  862 -2.745 60172.    
 1905  849 -3.105 60471.    
 1871  809 -2.647 60480.    
 1906  849 -1.959 60678.    
 1853  782 -2.552 60705.    
 1907  850 -1.802 60750.    
 1905  848 -1.787 60777.    
 1852  777 -3.185 60787.    
 1820  759 -3.673 60899.    
 1917  862 -2.369 60921.    
  803 1910 -2.088 61100.    
  763 1862 -1.845 61302.    
 1845  761 -2.291 61539.    
 1888  833 -0.522 61560.    
  766 1862 -3.190 61921.    
 1869  807 -2.724 61996.    
  820 1925 -3.567 62080.    
 1821  759 -3.661 62136.    
 1907  849 -2.196 62316.    
 1894  841 -1.892 62326.    
 1888  832 -1.026 62449.    
  756 1832 -2.741 62477.    
 1907  848 -1.265 62641.    
  796 1901 -2.625 62691.    
 1916  861 -2.453 62848.    
 1905  846 -1.229 63035.    
 1898  841 -1.560 63053.    
 1894  840 -2.589 63068.    
 1906  847 -1.326 63077.    
 1861  788 -2.188 63186.    
  800 1902 -2.707 63361.    
 1853  781 -2.539 63719.    
 1898  840 -2.289 63813.    
 1918  861 -2.688 63843.    
 1889  833 -0.546 63989.    
 1899  840 -2.015 64049.    
 1854  781 -1.763 64171.    
 1892  838 -3.765 64370.    
  798 1899 -2.847 64509.    
 1901  840 -1.513 64563.    
 1894  837 -1.418 65055.    
 1868  806 -0.389 65085.    
  805 1914 -1.422 65221.    
  806 1918 -1.172 65336.    
 1869  806 -0.385 65488.    
 1890  833 -0.448 65552.    
 1854  779 -2.901 65741.    
  765 1861 -2.727 65844.    
 1898  837 -1.080 65847.    
  767 1862 -2.990 65868.    
 1903  843 -2.330 66028.    
 1861  787 -2.362 66297.    
  799 1896 -3.141 66368.    
 1855  783 -3.670 66371.    
  761 1860 -3.620 66433.    
 1855  782 -2.620 66477.    
 1852  776 -3.285 66481.    
  800 1901 -2.377 66617.    
  806 1915 -2.690 66870.    
 1823  759 -3.744 66883.    
 1899  836 -1.859 66917.    
 1917  860 -1.000 67009.    
 1902  841 -1.086 67086.    
  800 1899 -2.674 67174.    
  756 1830 -4.025 67194.    
 1868  805 -2.079 67302.    
 1901  836 -1.349 67479.    
 1903  842 -2.590 67555.    
 1871  806 -0.480 67842.    
 1902  840 -1.175 67948.    
 1877  742 -4.578 68136.    
  770 1862 -2.326 68629.    
 1822  758 -4.018 68668.    
 1891  833 -1.330 68853.    
 1899  835 -1.701 68898.    
 1902  839 -2.384 68927.    
  807 1918 -2.415 69226.    
 1901  835 -1.198 69493.    
 1891  832 -0.486 69967.    
 1870  805 -0.380 70056.    
 1871  805 -1.152 70255.    
 1863  788 -2.732 70380.    
  757 1832 -3.406 70598.    
 1872  806 -2.389 70638.    
 1862  787 -1.645 70996.    
  833 1927 -1.608 71862.    
 1855  778 -2.418 72542.    
  768 1861 -2.728 72672.    
 1919  863 -0.631 73062.    
 1872  805 -0.418 73257.    
  769 1861 -2.539 73419.    
  833 1926 -1.516 73425.    
  797 1890 -2.652 76195.    
 1876  806 -2.798 76380.    
  758 1840 -2.358 76512.    
  757 1830 -3.677 76680.    
 1885  816 -1.033 76846.    
  765 1860 -2.124 77676.    
  741 1918 -2.419 78248.    
 1920  863 -2.627 78376.    
  741 1917 -3.766 78518.    
 1866  803 -2.597 78855.    
 1885  815 -0.925 79058.    
 1886  818 -1.194 79494.    
 1899  833 -3.718 79628.    
  741 1916 -4.070 79798.    
 1890  831 -3.815 80003.    
 1901  833 -2.253 80425.    
 1920  862 -0.742 80427.    
  771 1863 -2.032 80568.    
 1921  863 -1.304 81393.    
 1887  819 -3.718 81822.    
  794 1888 -2.384 81842.    
 1903  836 -2.576 82070.    
  799 1889 -2.307 82600.    
 1885  813 -2.808 82653.    
  801 1890 -3.308 82772.    
 1904  838 -3.483 82915.    
 1887  818 -1.000 83153.    
  802 1893 -1.063 83284.    
 1863  786 -2.073 84058.    
 1886  817 -0.777 84100.    
  761 1858 -3.531 84355.    
 1881  804 -3.221 84779.    
  801 1889 -2.357 85406.    
  835 1926 -4.224 85738.    
  819 1922 -1.894 86056.    
 1824  758 -3.473 86334.    
  759 1840 -3.406 86466.    
  810 1918 -0.991 86834.    
 1854  774 -4.030 86914.    
  799 1888 -2.960 87032.    
 1864  788 -2.078 87159.    
  757 1829 -3.465 87435.    
 1855  775 -2.285 87850.    
 1856  776 -3.541 88213.    
  769 1860 -2.585 88442.    
 1914  850 -3.561 88843.    
 1890  820 -2.436 88949.    
 1915  851 -1.367 89833.    
 1887  816 -1.371 90386.    
 1848  772 -3.240 90431.    
 1905  843 -1.697 90506.    
 1916  851 -1.375 90672.    
 1916  850 -1.537 90704.    
 1906  843 -2.142 90970.    
 1917  851 -2.517 92383.    
 1917  850 -2.118 92416.    
 1854  773 -3.268 92555.    
 1864  787 -2.929 93190.    
  742 1913 -6.212 93575.    
 1906  842 -1.532 93892.    
 1920  716 -1.267 94113.    
 1916  849 -1.327 94240.    
 1907  843 -2.278 94701.    
 1887  814 -3.000 95234.    
  756 1828 -2.429 95307.    
 1917  849 -1.683 96089.    
  833 1923 -0.922 97004.    
 1871  803 -6.486 97203.    
  789 1880 -4.550 97544.    
 1907  842 -1.740 97872.    
  805 1907 -1.020 98741.    
  758 1838 -2.202 98962.    
 1915  847 -2.813 99133.    
