 gf2000                                                                          
 hist_cutoff = 0.10,   wl_binwidth = 1.0e+03km/s,   wl_max = 1.0e+05,   ionization potential (Ky):   49306.0000    
 line selection based on g*f*exp(-chi/kT), where 5000<T<40000 K
         185        1997  number of levels and lines
       0.00 4s2 1S     1   62    1
   15157.90 4s4p 3P    1  441    1
   15210.10 4s4p 3P    1  442    3
   15315.90 4s4p 3P    1  443    5
   20335.40 3d4s 3D    1   63    3
   20349.30 3d4s 3D    1   64    5
   20371.00 3d4s 3D    1   65    7
   21849.60 3d4s 1D    1   66    5
   23652.30 4s4p 1P    1  444    3
   31539.50 4s5s 3S    1   67    3
   33317.30 4s5s 1S    1   68    1
   35730.50 3d4p 3F    1  445    5
   35818.70 3d4p 3F    1  446    7
   35835.40 3d4p 1D    1  447    5
   35896.90 3d4p 3F    1  448    9
   36547.70 4s5p 3P    1  449    1
   36554.80 4s5p 3P    1  450    3
   36575.10 4s5p 3P    1  451    5
   36731.60 4s5p 1P    1  452    3
   37298.30 4s4d 1D    1   69    5
   37748.20 4s4d 3D    1   70    3
   37751.90 4s4d 3D    1   71    5
   37757.40 4s4d 3D    1   72    7
   38192.40 3d4p 3D    1  453    3
   38219.10 3d4p 3D    1  454    5
   38259.10 3d4p 3D    1  455    7
   38417.50 4p2 3P     1   73    1
   38464.80 4p2 3P     1   74    3
   38551.60 4p2 3P     1   75    5
   39333.40 3d4p 3P    1  456    1
   39335.30 3d4p 3P    1  457    3
   39340.10 3d4p 3P    1  458    5
   40474.20 4s6s 3S    1   76    3
   40537.90 3d4p 1F    1  459    7
   40690.40 4s6s 1S    1   77    1
   40719.80 4p2 1D     1   78    5
   41679.00 4s6p 1P    1  460    3
   41786.30 4p2 1S     1   79    1
   42170.20 4s4f 3F    1  461    5
   42170.60 4s4f 3F    1  462    7
   42171.00 4s4f 3F    1  463    9
   42343.60 4s4f 1F    1  464    7
   42514.80 4s6p 3P    1  465    1
   42518.70 4s6p 3P    1  466    3
   42526.60 4s6p 3P    1  467    5
   42743.00 4s5d 3D    1   80    3
   42744.70 4s5d 3D    1   81    5
   42747.40 4s5d 3D    1   82    7
   42919.10 4s5d 1D    1   83    5
   43474.80 3d2 3F     1   84    5
   43489.10 3d2 3F     1   85    7
   43508.10 3d2 3F     1   86    9
   43933.50 3d4p 1P    1  468    3
   43980.80 4s7s 3S    1   87    3
   44276.50 4s7s 1S    1   88    1
   44762.60 4s5f 3F    1  469    5
   44762.80 4s5f 3F    1  470    7
   44763.10 4s5f 3F    1  471    9
   44804.90 4s5f 1F    1  472    7
   44874.40 4s5g 1G    1   89    9
   44874.80 4s5g 3G    3   90   27
   44955.70 4s7p 3P    1  473    1
   44957.70 4s7p 3P    1  474    3
   44961.80 4s7p 3P    1  475    5
   44989.80 4s6d 1D    1   91    5
   45049.10 4s6d 3D    1   92    3
   45050.40 4s6d 3D    1   93    5
   45052.40 4s6d 3D    1   94    7
   45425.40 4s7p 1P    1  476    3
   45738.70 4s8s 3S    1   95    3
   45887.20 4s8s 1S    1   96    1
   46164.60 4s6f 3F    1  477    5
   46164.80 4s6f 3F    1  478    7
   46165.00 4s6f 3F    1  479    9
   46182.40 4s6f 1F    1  480    7
   46200.10 4s7d 1D    1   97    5
   46231.00 4s6g 3G    3   98   27
   46231.70 4s6g 1G    1   99    9
   46249.10 4s6h 3H    4  481   44
   46284.10 4s8p 3P    1  482    1
   46285.20 4s8p 3P    1  483    3
   46287.60 4s8p 3P    1  484    5
   46302.00 4s7d 3D    1  100    3
   46303.60 4s7d 3D    1  101    5
   46306.10 4s7d 3D    1  102    7
   46479.80 4s8p 1P    1  485    3
   46748.30 4s9s 3S    1  103    3
   46835.10 4s9s 1S    1  104    1
  -46894.00 3d2 1G     1   61    9
   46949.00 4s8d 1D    1  105    5
   47006.20 4s7f 3F    1  486    5
   47006.30 4s7f 3F    1  487    7
   47006.40 4s7f 3F    1  488    9
   47015.10 4s7f 1F    1  489    7
   47036.20 4s8d 3D    1  106    3
   47040.00 4s8d 3D    1  107    5
   47045.20 4s8d 3D    1  108    7
   47048.40 4s7g 3G    3  109   27
   47048.90 4s7g 1G    1  110    9
   47060.50 4s7h 3H    4  490   44
  -47081.50 4s9p 3P    2  440    4
   47087.00 4s9p 3P    1  491    5
   47184.40 4s9p 1P    1  492    3
   47382.00 4s10s 3S   1  113    3
   47437.50 4s10s 1S   1  114    1
   47449.10 3d5s 1D    1  115    5
   47456.50 3d5s 3D    1  116    3
   47466.00 3d5s 3D    1  117    5
   47475.90 3d5s 3D    1  118    7
   47550.20 4s8f 3F    1  493    5
   47550.30 4s8f 3F    1  494    7
   47550.40 4s8f 3F    1  495    9
   47555.20 4s8f 1F    1  496    7
   47578.80 4s8g 3G    3  119   27
   47579.00 4s8g 1G    1  120    9
   47587.10 4s8h 3H    4  497   44
   47589.60 4s8i 3I    3  121   39
   47589.70 4s8i 1I    1  122   13
  -47601.40 4s10p 3P   2  439    4
   47605.80 4s10p 3P   1  499    5
   47662.10 4s10p 1P   1  500    3
   47752.70 4s9d 3D    1  123    3
   47757.30 4s9d 3D    1  124    5
   47765.70 4s9d 3D    1  125    7
   47806.20 4s11s 3S   1  126    3
   47812.40 4s9d 1D    1  127    5
   47843.80 4s11s 1S   1  128    1
   47921.90 4s9f 3F    1  501    5
   47922.00 4s9f 3F    1  502    7
   47922.00 4s9f 3F    1  503    9
   47924.90 4s9f 1F    1  504    7
   47942.10 4s9g 3G    4  129   36
   47948.10 4s9h 3H    4  505   44
   47949.90 4s9i 3I    3  130   39
   47950.00 4s9i 1I    1  131   13
  -47958.00 4s11p 3P   2  438    4
   47961.50 4s11p 3P   1  507    5
   47997.50 4s11p 1P   1  508    3
   48031.60 4s10d 3D   1  132    3
   48033.20 4s10d 3D   1  133    5
   48036.20 4s10d 3D   1  134    7
   48083.40 4s10d 1D   1  135    5
   48104.00 4s12s 3S   1  136    3
   48130.80 4s12s 1S   1  137    1
   48187.00 4s10f 3F   1  509    5
   48187.10 4s10f 3F   1  510    7
   48187.10 4s10f 3F   1  511    9
   48189.00 4s10f 1F   1  512    7
  -48213.20 4s12p 3P   2  437    4
   48216.40 4s12p 3P   1  513    5
   48240.50 4s12p 1P   1  514    3
   48258.30 4s11d 3D   1  138    3
   48258.80 4s11d 3D   1  139    5
   48260.30 4s11d 3D   1  140    7
   48290.90 4s11d 1D   1  141    5
   48321.10 4s13s 3S   1  142    3
   48340.80 4s13s 1S   1  143    1
   48382.70 4s11f 3F   1  515    5
   48382.80 4s11f 3F   1  516    7
   48382.80 4s11f 3F   1  517    9
   48384.00 4s11f 1F   1  518    7
  -48402.10 4s13p 3P   2  436    4
   48404.90 4s13p 3P   1  519    5
   48422.10 4s13p 1P   1  520    3
   48433.00 4s12d 3D   1  144    3
   48433.50 4s12d 3D   1  145    5
   48434.50 4s12d 3D   1  146    7
   48451.70 4s12d 1D   1  147    5
   48524.10 3d2 3P     1  148    1
  -48531.00 4s12f 3F   2  435   12
   48531.00 4s12f 3F   1  521    9
   48532.10 4s12f 1F   1  522    7
   48537.60 3d2 3P     1  149    3
  -48544.80 4s14p 3P   2  434    4
   48548.50 4s14p 3P   1  523    5
   48561.10 4s14p 1P   1  524    3
   48563.50 3d2 3P     1  150    5
   48568.70 4s13d 3D   1  151    3
   48568.90 4s13d 3D   1  152    5
   48569.50 4s13d 3D   1  153    7
   48578.30 4s13d 1D   1  154    5
  -48646.40 4s13f 3F   3  433   21
   48647.30 4s13f 1F   1  525    7
  -48738.10 4s14f 3F   3  432   21
   48738.50 4s14f 1F   1  526    7
   61  504 -2.032 -96975.   
  116  435 -1.181 -93039.   
  116  434 -2.568 -92155.   
  119  432 -2.917 -86230.   
  117  433 -0.532 -84697.   
  116  433 -0.510 -84018.   
  115  433 -1.940 -83499.   
  118  432 -1.279 -79203.   
  117  432 -1.287 -78589.   
  116  432 -1.271 -78004.   
   61  512 -2.380 -77202.   
  440  149 -4.740 -68472.   
  440  151 -1.683 -67047.   
  106  435 -1.391 -66883.   
  107  433 -0.542 -62235.   
  106  433 -0.536 -62090.   
   61  522 -3.566 -61029.   
  109  432 -3.292 -59163.   
  108  432 -1.320 -59054.   
  107  432 -1.317 -58873.   
   61  525 -3.928 -57021.   
  100  437 -4.060 -52377.   
   92  440 -2.238 -49284.   
  472   61 -2.289 -47853.   
  470   61 -5.940 -46909.   
  100  435 -1.677 -44851.   
  101  433 -0.669 -42674.   
  100  433 -0.666 -42644.   
  102  432 -1.465 -41106.   
  101  432 -1.463 -41066.   
  100  432 -1.461 -41038.   
   97  433 -3.967 -40868.   
   98  432 -3.731 -39876.   
   92  437 -3.533 -31621.   
   92  436 -2.820 -29838.   
   92  435 -2.022 -28712.   
   92  434 -2.166 -28627.   
   93  433 -0.841 -27801.   
   92  433 -0.838 -27791.   
   94  432 -1.665 -27124.   
   93  432 -1.664 -27110.   
   92  432 -1.662 -27100.   
   90  432 -4.344 -25877.   
  464   61 -1.466 -21970.   
   80  435 -2.501 -17272.   
   80  434 -2.228 -17242.   
   81  433 -1.036 -16940.   
   80  433 -1.033 -16935.   
   82  432 -1.917 -16688.   
   81  432 -1.917 -16680.   
   80  432 -1.915 -16676.   
  459   61 -0.338 -15729.   
   78  432 -4.199 -12468.   
  455   61 -4.065 -11578.   
   70  440 -4.208 -10716.   
   70  436 -2.769 -9385.9   
   70  435 -3.708 -9271.5   
   70  434 -2.285 -9262.6   
   71  433 -1.267 -9176.4   
   70  433 -1.266 -9173.4   
   72  432 -2.289 -9104.4   
   71  432 -2.290 -9099.8   
   70  432 -2.290 -9096.8   
  446   61 -4.994 -9026.6   
   66  433 -4.776 -3730.7   
   63  435 -2.598 -3545.6   
   64  433 -2.447 -3532.9   
   63  433 -2.447 -3531.2   
   65  432 -2.740 -3524.2   
   64  432 -2.744 -3521.5   
   63  432 -2.743 -3519.8   
   62  524 -2.186 2058.6    
   62  520 -1.386 2064.5    
   62  514 -4.988 2072.3    
   62  437 -8.993 2073.3    
   62  508 -3.487 2082.8    
   62  500 -2.971 2097.4    
   62  492 -2.519 2118.7    
   62  440 -6.429 2123.1    
   62  485 -2.049 2150.8    
   62  483 -6.028 2159.8    
   62  476 -1.523 2200.7    
   62  474 -5.603 2223.6    
   62  468 -1.068 2275.5    
   62  466 -5.186 2351.2    
   62  460 -1.070 2398.6    
   62  457 -4.522 2541.5    
   62  453 -4.491 2617.5    
   62  452 -2.718 2721.6    
   62  450 -4.630 2734.8    
  441  151 -1.105 2992.2    
  441  149 -0.857 2995.0    
  442  152 -1.229 2996.8    
  442  151 -1.708 2996.9    
  442  150 -1.231 2997.3    
  442  149 -1.460 2999.6    
  442  148 -1.339 3000.9    
  443  153 -1.180 3006.3    
  443  152 -1.932 3006.4    
  443  150 -0.978 3006.9    
  442  145 -2.133 3009.1    
  443  149 -1.463 3009.2    
  443  146 -2.094 3018.6    
  443  145 -2.832 3018.7    
  441  138 -2.177 3020.2    
  442  139 -2.318 3024.9    
  442  138 -2.779 3025.0    
  443  142 -3.313 3028.9    
  443  140 -2.288 3034.5    
  443  139 -3.018 3034.7    
  442  136 -3.275 3039.2    
  441  132 -2.357 3041.1    
  442  133 -2.503 3045.7    
  442  132 -2.959 3045.9    
  443  136 -3.276 3049.0    
  443  134 -2.475 3055.3    
  443  133 -3.205 3055.6    
  441  126 -3.173 3062.1    
  442  127 -3.416 3066.4    
  442  126 -3.173 3067.0    
  441  123 -2.641 3067.1    
  442  124 -2.900 3071.6    
  442  123 -3.243 3072.0    
  443  126 -3.174 3077.0    
  443  125 -2.766 3080.8    
  443  124 -3.612 3081.6    
  441  116 -2.885 3095.2    
  442  117 -3.064 3099.3    
  442  116 -3.487 3100.2    
  441  113 -3.022 3102.4    
  442  113 -3.023 3107.4    
  443  118 -3.028 3108.6    
  443  117 -3.758 3109.5    
  443  116 -4.886 3110.4    
  443  113 -3.024 3117.7    
  441  106 -3.733 3136.0    
  442  107 -3.942 3140.8    
  442  106 -4.335 3141.2    
  442  105 -5.385 3149.8    
  443  108 -4.007 3150.7    
  443  107 -4.637 3151.3    
  443  105 -6.409 3160.3    
  442  104 -6.404 3161.1    
  441  103 -2.821 3164.6    
  442  103 -2.821 3169.8    
  443  103 -2.822 3180.5    
  441  100 -2.921 3210.0    
  442  101 -3.024 3215.2    
  442  100 -3.524 3215.3    
  443  102 -2.944 3225.9    
  443  101 -3.725 3226.2    
  443   97 -6.863 3237.0    
  441   95 -2.563 3269.1    
  442   95 -2.564 3274.7    
  443   95 -2.565 3286.1    
  441   92 -1.879 3344.5    
  442   93 -2.000 3350.2    
  442   92 -2.481 3350.4    
  443   94 -1.945 3361.9    
  443   93 -2.701 3362.1    
  443   91 -5.763 3369.0    
  442   88 -6.139 3439.4    
  441   87 -2.226 3468.5    
  442   87 -2.226 3474.8    
  443   87 -2.228 3487.6    
   64  526 -5.079 3521.4    
   64  525 -5.059 3532.8    
   65  433 -2.445 3535.6    
   64  435 -2.598 3547.4    
   65  435 -3.688 3550.1    
   65  521 -2.633 3550.1    
   64  436 -4.552 3563.4    
   63  515 -2.477 3564.4    
   64  516 -2.529 3566.1    
   64  515 -3.433 3566.1    
   65  517 -2.512 3568.9    
   65  516 -3.580 3568.9    
   63  437 -4.562 3585.7    
   64  513 -5.152 3587.4    
   64  437 -4.673 3587.5    
   63  509 -2.343 3589.4    
   64  510 -2.395 3591.2    
   64  509 -3.299 3591.2    
   65  511 -2.378 3594.0    
   65  510 -3.445 3594.0    
  442   83 -3.337 3607.9    
  443   83 -4.066 3621.7    
   63  501 -2.195 3623.9    
  441   80 -1.168 3624.1    
   64  502 -2.247 3625.7    
   65  503 -2.231 3628.6    
  442   81 -1.296 3630.8    
  442   80 -1.771 3631.0    
  443   82 -1.243 3644.4    
  443   81 -1.997 3644.8    
   63  500 -7.670 3658.4    
   64  500 -7.538 3660.2    
   63  439 -4.714 3666.1    
   64  499 -5.307 3667.8    
   64  439 -4.824 3667.9    
   65  499 -4.699 3670.7    
   63  493 -2.032 3673.4    
   64  494 -2.083 3675.3    
   64  493 -2.988 3675.3    
   65  495 -2.068 3678.2    
   65  494 -3.134 3678.2    
   66  526 -2.350 3717.9    
   66  525 -1.829 3730.6    
   66  524 -3.795 3742.6    
   66  522 -2.399 3746.7    
   63  486 -1.849 3748.3    
   64  487 -1.900 3750.3    
   64  486 -2.804 3750.3    
   65  488 -1.885 3753.3    
   65  487 -2.951 3753.4    
  442   79 -4.479 3761.7    
   66  520 -4.555 3762.2    
   66  518 -2.295 3767.6    
   66  514 -3.805 3788.1    
   66  512 -2.163 3795.5    
   66  508 -3.398 3823.3    
   66  504 -2.015 3834.0    
   63  483 -5.534 3852.5    
   63  482 -5.395 3852.7    
   64  484 -5.759 3854.2    
   64  483 -5.256 3854.6    
   65  484 -5.127 3857.4    
   63  477 -1.642 3870.5    
   64  478 -1.694 3872.5    
   64  477 -2.598 3872.6    
   65  479 -1.679 3875.8    
   65  478 -2.744 3875.8    
   66  496 -1.848 3889.1    
   66  494 -4.815 3889.9    
  442   77 -4.376 3923.5    
  443   78 -3.902 3935.3    
   66  492 -2.668 3946.0    
  441   76 -1.736 3948.9    
  442   76 -1.736 3957.1    
   66  440 -6.569 3961.5    
   66  489 -1.658 3972.6    
  443   76 -1.738 3973.7    
   66  487 -4.768 3974.0    
   63  476 -6.754 3984.5    
   64  476 -6.835 3986.7    
  444  154 -0.924 4010.7    
  444  152 -3.994 4012.2    
  444  147 -2.105 4031.2    
  444  145 -4.424 4034.2    
  444  143 -3.055 4049.3    
  444  141 -3.020 4057.5    
   66  485 -2.252 4058.9    
  444  139 -5.311 4062.8    
   65  475 -6.002 4065.4    
  444  137 -2.914 4084.1    
   63  469 -1.408 4092.6    
   64  470 -1.459 4094.9    
   64  469 -2.364 4095.0    
   65  471 -1.445 4098.5    
   65  470 -2.510 4098.6    
   66  480 -1.439 4108.5    
   66  478 -4.487 4111.5    
  444  128 -2.753 4132.5    
  444  126 -7.246 4139.0    
  444  124 -6.617 4147.4    
  444  115 -4.680 4201.1    
  444  114 -2.584 4203.1    
  444  113 -7.107 4212.9    
   62  444  0.357 4226.7    
   66  476 -1.750 4240.5    
  444  107 -6.173 4274.5    
  442   75 -0.613 4283.0    
  441   74 -0.233 4289.4    
  442   74 -0.836 4299.0    
  443   75 -0.360 4302.5    
  442   73 -0.711 4307.7    
  443   74 -0.838 4318.7    
   66  474 -5.903 4326.3    
  444  103 -6.920 4328.5    
   66  472 -1.169 4355.1    
   66  470 -4.574 4363.1    
  444  101 -5.222 4413.5    
  441   70 -0.446 4425.4    
  442   71 -0.572 4435.0    
  442   70 -1.049 4435.7    
  443   72 -0.525 4454.8    
  443   71 -1.274 4455.9    
  444   96 -2.137 4496.2    
   63  466 -3.591 4506.6    
   63  465 -3.478 4507.4    
   64  467 -3.812 4507.8    
   64  466 -3.359 4509.4    
   65  467 -3.243 4512.3    
  442   69 -3.979 4526.0    
   66  468 -1.258 4526.9    
   64  464 -4.460 4545.4    
  443   69 -4.139 4547.8    
   63  461 -1.158 4578.6    
   64  462 -1.209 4581.4    
   64  461 -2.114 4581.5    
   65  463 -1.195 4585.9    
   65  462 -2.261 4586.0    
  444   93 -4.549 4672.0    
  444   91 -1.848 4685.3    
   64  460 -4.856 4687.0    
   66  467 -6.394 4835.0    
   66  466 -5.548 4836.8    
  444   88 -1.774 4847.3    
   66  464 -0.756 4878.1    
   66  462 -4.666 4919.7    
   66  461 -5.925 4919.7    
   64  459 -5.022 4951.9    
   65  459 -4.146 4957.2    
   66  460 -1.108 5041.6    
  444   83 -0.769 5188.8    
  444   81 -2.900 5236.2    
   63  457 -0.982 5261.7    
   63  456 -0.886 5262.2    
   64  458 -1.185 5264.2    
   64  457 -0.766 5265.6    
   65  458 -0.643 5270.3    
   66  459 -0.898 5349.5    
  444   79 -0.741 5513.0    
   64  455 -1.216 5582.0    
   65  455 -0.487 5588.7    
   63  454 -1.024 5590.1    
   64  454 -0.605 5594.5    
   63  453 -0.568 5598.5    
   65  454 -1.341 5601.3    
   64  453 -1.231 5602.8    
   66  458 -3.924 5715.8    
  444   78 -0.148 5857.5    
   67  523 -3.747 5877.6    
   67  434 -3.842 5877.7    
   67  519 -1.815 5927.6    
   67  436 -1.912 5927.8    
  444   76 -5.876 5943.0    
   67  514 -6.737 5986.0    
   67  513 -2.719 5994.7    
   67  437 -2.815 5994.9    
   67  507 -2.987 6087.7    
   67  438 -3.084 6087.9    
   63  452 -3.396 6097.3    
  441   67 -0.738 6102.7    
  442   67 -0.739 6122.2    
  443   67 -0.742 6162.2    
   63  449 -1.638 6166.4    
   64  450 -1.503 6169.0    
   65  451 -1.372 6169.6    
   67  500 -7.096 6200.8    
   67  499 -3.064 6222.5    
   67  439 -3.160 6222.9    
   67  492 -7.018 6390.1    
   67  491 -3.010 6430.1    
   65  448 -0.402 6439.1    
   63  447 -1.401 6449.8    
   64  446 -0.421 6462.6    
   65  446 -1.443 6471.7    
   63  445 -0.414 6493.8    
   64  445 -1.367 6499.6    
   68  524 -1.703 6558.2    
   62  442 -4.005 6572.8    
   68  520 -0.930 6618.6    
   68  436 -5.071 6626.3    
   68  514 -4.283 6699.1    
  444   75 -3.538 6709.9    
   66  452 -1.260 6717.7    
  444   74 -5.285 6749.2    
  444   73 -4.227 6770.8    
   67  484 -2.813 6778.6    
   67  483 -3.034 6779.8    
   67  482 -3.510 6780.3    
   66  451 -4.045 6789.1    
   66  450 -3.244 6798.5    
   68  508 -3.787 6810.0    
   68  438 -7.933 6827.0    
   68  500 -3.051 6969.2    
   68  439 -6.990 6997.2    
  444   71 -3.838 7090.5    
   66  447 -0.413 7148.1    
   66  445 -1.388 7202.2    
   68  492 -2.520 7209.3    
   68  440 -6.430 7261.2    
  444   69 -0.469 7326.1    
   67  475 -2.395 7448.3    
   67  474 -2.615 7450.5    
   67  473 -3.092 7451.6    
   68  485 -1.996 7595.2    
   68  483 -5.961 7709.2    
  445  154 -1.726 7781.3    
  445  152 -1.787 7786.9    
  445  151 -1.042 7787.1    
  445  149 -4.603 7806.0    
  446  153 -1.843 7840.5    
  446  152 -0.975 7840.8    
  447  154 -0.782 7845.3    
  447  151 -2.036 7851.3    
  448  153 -0.917 7888.9    
  446  147 -5.165 7913.6    
  447  147 -3.041 7924.1    
  446  146 -3.590 7924.4    
  446  145 -2.703 7925.0    
  447  144 -3.731 7935.8    
  448  146 -2.678 7973.8    
  445  139 -3.343 7979.7    
  445  138 -2.563 7980.0    
  446  141 -4.794 8015.7    
  447  141 -2.918 8026.4    
  446  140 -3.398 8035.4    
  446  139 -2.516 8036.3    
  447  138 -3.552 8047.4    
   67  468 -6.071 8066.2    
  448  140 -2.484 8086.2    
  445  133 -3.302 8126.0    
  445  132 -2.501 8127.1    
  446  135 -4.288 8151.2    
  447  135 -2.904 8162.4    
  446  134 -3.331 8182.7    
  446  133 -2.456 8184.7    
  447  133 -3.702 8195.9    
  447  132 -3.493 8197.0    
  448  134 -2.415 8235.4    
  446  129 -4.441 8246.2    
   68  476 -1.410 8256.7    
  445  127 -3.341 8274.5    
  448  129 -4.459 8299.7    
  445  123 -2.526 8315.7    
  449  151 -1.719 8316.5    
  450  152 -1.827 8321.2    
  450  151 -2.340 8321.4    
  450  150 -1.787 8325.0    
  451  153 -1.755 8334.9    
  451  152 -2.548 8335.3    
  449  149 -1.405 8338.0    
  451  150 -1.525 8339.1    
  450  149 -2.019 8343.0    
  450  148 -1.869 8352.4    
  451  149 -1.981 8357.2    
  446  125 -3.349 8368.0    
  446  124 -2.597 8373.9    
  447  124 -3.192 8385.6    
  447  123 -3.520 8388.9    
  449  144 -3.409 8411.4    
  448  125 -2.433 8423.1    
  451  146 -3.477 8429.8    
  452  154 -2.334 8438.8    
  452  152 -4.133 8445.5    
  452  151 -3.959 8445.7    
  452  150 -3.826 8449.4    
  452  149 -3.787 8467.9    
  450  143 -4.425 8482.3    
  449  142 -3.018 8491.4    
  450  142 -3.023 8496.4    
  451  142 -3.018 8511.2    
  445  118 -4.517 8511.6    
  445  117 -3.053 8518.8    
  445  116 -2.381 8525.7    
  452  147 -2.732 8530.0    
  450  139 -3.512 8541.7    
  451  140 -3.470 8555.5    
  451  139 -4.285 8556.6    
  446  118 -3.201 8576.0    
  446  117 -2.347 8583.3    
  447  116 -3.376 8602.7    
  447  115 -2.789 8608.2    
  452  143 -2.477 8611.5    
  448  118 -2.283 8633.9    
  452  141 -2.538 8648.7    
  449  136 -2.947 8650.9    
  450  136 -2.952 8656.2    
  451  136 -2.947 8671.5    
  451  135 -5.066 8687.0    
  449  132 -2.728 8705.5    
  450  133 -2.833 8709.6    
  450  132 -3.349 8710.8    
  451  134 -2.787 8722.8    
  451  133 -3.576 8725.0    
  451  132 -4.770 8726.3    
   69  526 -2.000 8738.7    
  452  137 -2.576 8770.2    
  452  135 -2.367 8806.8    
   69  525 -0.997 8808.9    
  445  107 -2.894 8839.7    
  445  106 -2.188 8842.6    
  452  133 -4.634 8845.9    
  452  132 -4.969 8847.2    
  450  128 -4.419 8855.7    
   69  524 -1.487 8876.3    
  451  126 -2.816 8901.4    
  446  108 -3.008 8905.0    
  446  107 -2.135 8909.2    
  449  123 -2.435 8922.2    
  450  124 -2.609 8924.1    
  447  106 -3.185 8925.5    
  451  125 -2.498 8933.6    
  451  124 -3.410 8940.4    
  448  108 -2.090 8967.5    
  446  105 -4.269 8982.0    
   69  520 -2.157 8987.3    
  447  105 -2.655 8995.5    
  452  128 -2.494 8996.7    
   69  518 -3.836 9018.1    
  452  127 -2.339 9022.2    
  452  124 -2.951 9067.3    
  452  123 -4.759 9071.1    
   67  467 -1.670 9099.1    
   67  466 -1.891 9105.6    
   67  465 -2.368 9108.8    
   69  514 -2.376 9136.4    
  450  117 -2.226 9162.3    
  449  116 -2.053 9164.4    
  450  116 -2.668 9170.4    
  451  118 -2.120 9171.1    
  451  117 -2.900 9179.5    
   72  433 -1.268 9181.1    
  449  113 -2.630 9227.4    
  450  113 -2.636 9233.4    
  451  113 -2.632 9250.8    
   71  523 -2.876 9259.6    
   71  434 -2.400 9259.8    
   72  523 -2.276 9264.4    
   71  435 -3.708 9274.6    
   72  521 -3.744 9279.4    
   72  435 -4.805 9279.4    
  452  117 -3.021 9313.3    
  452  115 -1.999 9328.0    
  452  114 -2.359 9338.1    
   69  508 -2.484 9343.9    
   71  519 -3.361 9384.4    
   71  436 -2.884 9384.7    
   72  519 -2.762 9389.3    
   68  468 -0.891 9417.0    
  445  101 -2.845 9455.3    
  445  100 -2.126 9456.8    
  449  106 -1.618 9531.6    
  446  102 -2.945 9532.7    
  450  107 -1.758 9534.6    
  446  101 -2.070 9534.9    
  450  106 -2.231 9538.0    
  451  108 -1.691 9548.4    
  447  100 -3.125 9551.6    
  451  107 -2.450 9553.1    
   72  513 -3.145 9558.6    
   72  511 -3.887 9585.4    
  448  102 -2.025 9604.3    
  453  152 -1.526 9634.5    
  453  151 -1.110 9634.7    
  453  150 -2.435 9639.5    
  454  153 -1.695 9658.8    
  454  152 -1.145 9659.3    
  454  151 -1.788 9659.6    
  453  149 -1.166 9663.6    
  454  150 -1.434 9664.4    
  453  148 -0.999 9676.3    
  454  149 -0.868 9688.7    
  455  153 -1.014 9696.3    
  455  150 -0.765 9701.9    
  450  104 -4.091 9724.7    
   69  496 -3.068 9746.8    
  453  145 -2.950 9761.9    
  453  144 -2.462 9762.4    
  454  147 -4.707 9770.0    
  452  105 -1.581 9784.6    
  454  146 -3.165 9786.5    
  454  145 -2.511 9787.5    
  454  144 -3.153 9787.9    
  449  103 -2.387 9800.7    
  450  103 -2.393 9807.5    
  455  146 -2.416 9825.0    
  455  145 -3.290 9826.0    
  451  103 -2.389 9827.1    
  453  143 -5.940 9851.1    
   73  524 -5.536 9855.8    
   67  460 -5.644 9859.7    
   73  434 -5.231 9868.2    
  452  104 -2.171 9894.9    
  453  141 -4.688 9899.8    
  454  141 -4.538 9926.1    
  453  139 -2.802 9931.3    
  453  138 -2.331 9931.8    
  454  140 -3.008 9956.3    
  454  139 -2.380 9957.7    
  454  138 -3.019 9958.2    
  455  140 -2.279 9996.1    
  455  139 -3.153 9997.5    
   73  436 -5.104 10010.    
   75  522 -6.103 10017.    
   74  519 -5.485 10057.    
   74  436 -5.379 10058.    
  453  137 -6.158 10059.    
  453  136 -7.874 10086.    
   71  500 -6.273 10088.    
  447   95 -6.200 10095.    
   69  492 -2.547 10112.    
  454  135 -4.137 10135.    
   72  499 -4.533 10151.    
  453  133 -2.769 10159.    
  453  132 -2.297 10161.    
  454  134 -2.968 10184.    
  454  133 -2.349 10187.    
  454  132 -2.985 10188.    
   70  493 -3.159 10199.    
   71  494 -3.207 10203.    
   72  495 -3.188 10209.    
   72  494 -4.262 10209.    
  455  134 -2.242 10225.    
  455  133 -3.119 10228.    
  449  100 -1.258 10249.    
  450  101 -1.394 10255.    
  450  100 -1.870 10257.    
  451  102 -1.335 10274.    
  451  101 -2.089 10276.    
   69  489 -2.523 10289.    
   75  514 -6.496 10318.    
  455  129 -6.970 10325.    
  444   68 -0.777 10344.    
  450   97 -2.862 10365.    
  451   97 -4.926 10387.    
  453  127 -3.372 10392.    
  454  127 -2.978 10421.    
  452  101 -2.972 10444.    
  453  124 -2.939 10452.    
  453  123 -2.341 10457.    
  455  127 -3.811 10465.    
  454  125 -3.010 10472.    
  454  124 -2.512 10481.    
  454  123 -3.029 10486.    
  455  125 -2.283 10516.    
  455  124 -3.267 10525.    
  452   97 -1.208 10558.    
   75  508 -6.758 10584.    
   71  492 -6.400 10599.    
   75  507 -5.055 10624.    
   75  438 -5.533 10625.    
   75  504 -6.136 10666.    
   75  502 -7.639 10669.    
   71  440 -4.310 10711.    
  450   96 -3.828 10712.    
   72  491 -4.174 10716.    
  445   94 -4.187 10724.    
  445   93 -2.853 10727.    
  445   92 -2.126 10728.    
  453  117 -2.705 10780.    
  453  116 -2.223 10791.    
  454  117 -2.287 10811.    
  456  151 -0.647 10825.    
  457  152 -0.777 10827.    
  457  151 -1.230 10827.    
  446   93 -2.069 10829.    
  458  153 -0.728 10832.    
  458  152 -1.441 10833.    
  457  150 -0.721 10833.    
  458  150 -0.461 10839.    
  456  149 -0.343 10862.    
  457  149 -0.933 10864.    
  458  149 -0.970 10869.    
  457  148 -0.834 10880.    
  450   95 -2.067 10886.    
   69  485 -2.420 10888.    
  451   95 -2.063 10910.    
  452   96 -1.908 10919.    
  448   94 -2.024 10919.    
  447   91 -2.820 10921.    
  457  147 -6.472 10966.    
  458  147 -5.375 10972.    
  457  145 -5.740 10988.    
  457  144 -5.582 10989.    
  458  146 -4.858 10993.    
  458  145 -5.910 10994.    
  446   90 -4.108 11039.    
   75  499 -4.946 11042.    
  447   90 -5.209 11060.    
  452   95 -3.981 11099.    
  456  142 -4.362 11123.    
  457  142 -4.368 11126.    
  458  142 -4.382 11131.    
  448   90 -4.083 11135.    
  457  141 -5.639 11163.    
  458  141 -5.182 11169.    
  456  138 -2.809 11202.    
  457  139 -2.988 11203.    
  457  138 -3.355 11204.    
  458  140 -2.994 11207.    
  458  139 -3.580 11209.    
   69  480 -1.922 11253.    
   69  478 -6.294 11275.    
  453  107 -2.532 11299.    
  453  106 -2.060 11304.    
  454  108 -2.741 11327.    
  454  107 -2.106 11334.    
  454  106 -2.747 11338.    
  455  108 -2.002 11378.    
  455  107 -2.884 11385.    
  456  136 -5.154 11399.    
  457  136 -5.172 11401.    
  458  136 -5.210 11407.    
  453  105 -4.953 11417.    
  457  135 -4.791 11428.    
  458  135 -4.902 11434.    
  454  105 -4.231 11452.    
  456  132 -2.591 11493.    
  457  133 -2.758 11494.    
  457  132 -3.149 11496.    
  458  134 -2.743 11496.    
  458  133 -3.376 11500.    
  458  132 -4.463 11502.    
  455  105 -4.656 11505.    
   74  491 -5.038 11595.    
   74  440 -4.936 11597.    
  453  103 -6.795 11685.    
   70  483 -3.536 11710.    
   70  482 -3.410 11712.    
   71  484 -3.755 11712.    
   71  483 -3.277 11716.    
   72  484 -3.148 11720.    
  449   92 -0.878 11760.    
  450   93 -1.013 11767.    
  450   92 -1.488 11769.    
  451   94 -0.957 11793.    
  451   93 -1.707 11796.    
   75  487 -7.569 11824.    
  450   91 -2.508 11852.    
  458  125 -2.745 11865.    
  457  124 -2.876 11870.    
   70  477 -1.980 11878.    
   71  478 -2.031 11883.    
   71  477 -2.936 11883.    
   72  479 -2.015 11891.    
   72  478 -3.082 11891.    
   68  460 -0.849 11956.    
  452   93 -2.663 12018.    
  452   92 -3.350 12020.    
  452   91 -0.782 12106.    
  458  118 -2.638 12288.    
  457  117 -2.687 12296.    
   69  476 -2.111 12301.    
  456  116 -2.502 12307.    
  453  101 -2.509 12325.    
  453  100 -2.027 12328.    
  457  114 -7.187 12339.    
  454  102 -2.728 12362.    
  454  101 -2.070 12366.    
  454  100 -2.715 12368.    
   76  523 -3.776 12382.    
   76  434 -3.871 12382.    
  455  102 -1.970 12424.    
  459  154 -0.911 12434.    
   78  526 -1.636 12467.    
  454   97 -4.675 12526.    
  455   99 -5.566 12540.    
   76  520 -6.312 12579.    
   76  519 -2.012 12606.    
   78  525 -0.762 12611.    
  459  147 -3.059 12633.    
  459  145 -5.648 12662.    
  444   67 -5.315 12675.    
   77  524 -2.601 12702.    
   78  524 -1.426 12750.    
   74  484 -4.964 12780.    
   74  483 -5.233 12784.    
   74  482 -5.099 12785.    
   67  458 -1.242 12816.    
   67  457 -1.474 12824.    
   67  456 -1.955 12827.    
   76  514 -6.774 12873.    
  445   85 -1.863 12885.    
  445   84 -0.923 12909.    
   77  520 -1.529 12930.    
  450   88 -3.428 12947.    
  458  108 -2.592 12975.    
  457  107 -2.615 12976.    
   78  520 -2.179 12980.    
  446   86 -1.984 13001.    
  446   85 -0.909 13034.    
   78  518 -2.515 13044.    
  446   84 -1.937 13058.    
  447   84 -1.913 13086.    
  457  105 -4.444 13131.    
  448   86 -0.869 13135.    
  448   85 -2.046 13168.    
   77  514 -3.180 13241.    
  452   88 -1.510 13250.    
   78  514 -2.475 13293.    
  454   95 -6.150 13295.    
   69  472 -1.179 13318.    
   76  507 -2.963 13352.    
   78  512 -2.464 13385.    
   78  510 -5.342 13388.    
   69  469 -5.749 13393.    
  449   87 -1.576 13450.    
  450   87 -1.582 13462.    
  457  103 -4.875 13486.    
  451   87 -1.579 13500.    
  459  129 -3.483 13502.    
   77  508 -2.700 13682.    
   78  508 -2.667 13737.    
  459  127 -3.579 13743.    
  452   87 -3.499 13791.    
   78  438 -6.517 13806.    
  459  124 -4.021 13848.    
   71  475 -3.043 13866.    
   70  474 -2.823 13867.    
   70  473 -2.697 13871.    
   71  474 -2.565 13874.    
   78  504 -2.405 13875.    
   72  475 -2.438 13877.    
  445   83 -5.233 13907.    
   76  499 -2.910 14018.    
   76  439 -3.006 14020.    
  446   83 -4.250 14080.    
  447   83 -5.529 14113.    
   71  472 -6.037 14174.    
   72  472 -6.062 14186.    
  459  120 -3.405 14199.    
   70  469 -1.202 14252.    
  445   80 -2.180 14256.    
   71  470 -1.253 14259.    
   71  469 -2.157 14260.    
   72  471 -1.238 14270.    
   72  470 -2.303 14271.    
   77  500 -2.336 14340.    
  456  100 -2.818 14346.    
  457  101 -3.000 14347.    
  457  100 -3.350 14350.    
  458  102 -2.997 14352.    
  458  101 -3.554 14357.    
   78  500 -2.884 14401.    
  446   82 -2.998 14429.    
  446   81 -2.127 14434.    
  459  115 -2.916 14465.    
  447   80 -3.191 14473.    
  460  154 -0.796 14490.    
   75  476 -6.755 14544.    
  457   97 -5.050 14563.    
  453   93 -2.579 14577.    
  453   92 -2.067 14580.    
  448   82 -2.078 14593.    
   78  496 -2.277 14626.    
  454   94 -2.820 14630.    
  454   93 -2.108 14635.    
  454   92 -2.759 14637.    
  453   91 -4.729 14707.    
  455   94 -2.017 14716.    
  455   93 -2.896 14721.    
   79  524 -1.712 14756.    
  460  147 -2.203 14761.    
  454   91 -4.942 14765.    
   79  434 -5.955 14784.    
  460  145 -4.581 14801.    
  452   84 -4.354 14826.    
  455   91 -5.013 14853.    
   76  492 -6.617 14899.    
   67  454 -3.907 14967.    
  460  143 -2.133 15007.    
  454   90 -7.319 15021.    
   67  453 -4.418 15027.    
  442   66 -5.174 15057.    
   79  520 -0.940 15066.    
   69  468 -1.617 15067.    
   76  491 -2.701 15118.    
  460  141 -4.179 15120.    
   76  440 -2.797 15122.    
  460  139 -6.201 15194.    
  460  138 -6.989 15195.    
  457   96 -6.636 15259.    
   73  474 -4.634 15286.    
  443   66 -5.797 15301.    
  459  110 -1.640 15354.    
  459  108 -5.908 15363.    
  459  107 -4.664 15375.    
   77  492 -1.939 15395.    
   78  492 -3.118 15465.    
  460  137 -2.363 15495.    
   79  437 -6.907 15549.    
  459  105 -2.471 15594.    
   75  475 -4.807 15596.    
  460  135 -2.574 15610.    
  457   95 -4.466 15613.    
  461  152 -5.766 15624.    
  458   95 -4.415 15624.    
  463  153 -5.127 15624.    
  461  151 -4.939 15625.    
  462  152 -5.003 15625.    
   78  440 -7.002 15705.    
  450   83 -1.755 15708.    
  451   83 -3.338 15759.    
   78  489 -2.088 15881.    
   78  487 -5.438 15903.    
  462  147 -6.713 15916.    
  462  146 -5.532 15960.    
  463  146 -4.586 15961.    
  462  145 -4.659 15963.    
  461  144 -4.691 15963.    
   75  472 -5.810 15987.    
  464  154 -1.852 16035.    
  464  152 -4.954 16059.    
  464  150 -5.926 16073.    
   79  508 -5.197 16096.    
  449   80 -0.363 16137.    
  450   81 -0.509 16151.    
  450   80 -0.973 16155.    
  452   83 -0.231 16157.    
  451   82 -0.445 16197.    
  451   81 -1.196 16204.    
  451   80 -2.371 16209.    
  460  127 -2.313 16300.    
  461  141 -7.612 16334.    
  462  141 -6.770 16335.    
  464  147 -3.989 16367.    
  463  140 -4.777 16418.    
  462  139 -4.851 16421.    
  461  138 -4.883 16421.    
  453   88 -5.035 16432.    
  460  124 -2.783 16448.    
  466  154 -4.679 16498.    
  465  151 -3.219 16514.    
  466  152 -3.406 16524.    
  466  151 -3.819 16525.    
  466  150 -2.695 16539.    
  467  153 -3.476 16544.    
  467  150 -2.443 16560.    
  465  149 -2.315 16599.    
  452   81 -1.822 16626.    
  452   80 -2.864 16631.    
  467  149 -2.927 16632.    
  466  148 -2.797 16647.    
  464  141 -4.480 16810.    
  465  144 -5.687 16893.    
  464  139 -6.917 16901.    
  466  145 -6.355 16902.    
  466  144 -6.226 16904.    
  462  135 -6.767 16908.    
   81  525 -3.768 16937.    
   82  433 -1.037 16947.    
   79  500 -4.207 17014.    
  462  134 -6.087 17044.    
  463  134 -5.147 17045.    
  462  133 -5.236 17052.    
  461  132 -5.265 17056.    
   83  526 -2.039 17179.    
   81  524 -3.961 17188.    
   76  484 -2.309 17197.    
   76  483 -2.530 17204.    
   76  482 -3.006 17207.    
   81  523 -2.824 17225.    
   81  434 -2.347 17226.    
  466  142 -2.894 17229.    
   82  523 -2.223 17233.    
  467  142 -2.894 17253.    
   77  485 -1.458 17268.    
  460  117 -3.121 17275.    
   81  435 -2.503 17277.    
   82  521 -2.539 17285.    
  461  129 -1.765 17321.    
  462  129 -1.765 17322.    
  463  129 -1.765 17323.    
  460  115 -1.817 17326.    
  460  114 -2.211 17361.    
  465  138 -3.193 17406.    
  466  139 -3.296 17416.    
  466  138 -3.798 17418.    
  467  140 -3.209 17436.    
   83  525 -1.150 17453.    
  457   93 -3.361 17493.    
  457   92 -4.040 17497.    
  458   94 -3.247 17501.    
  458   93 -4.298 17507.    
  459   99 -1.251 17558.    
   81  520 -4.639 17609.    
  459   97 -2.258 17656.    
   81  519 -3.389 17662.    
   81  436 -2.913 17663.    
   82  519 -2.790 17671.    
   83  524 -1.791 17719.    
   80  515 -2.449 17727.    
   81  516 -2.501 17732.    
   81  515 -3.408 17732.    
   82  517 -2.485 17740.    
   82  516 -3.552 17740.    
   83  522 -2.685 17811.    
   83  435 -4.974 17814.    
  464  129 -1.773 17857.    
  466  136 -2.732 17899.    
  461  123 -6.273 17908.    
  467  136 -2.732 17925.    
  466  135 -4.452 17966.    
  467  135 -5.184 17991.    
  465  132 -2.626 18122.    
  466  133 -2.747 18129.    
  466  132 -3.230 18134.    
  467  134 -2.672 18145.    
  467  133 -3.448 18155.    
   83  520 -2.486 18167.    
   83  519 -5.519 18224.    
   83  436 -4.893 18225.    
   80  513 -4.854 18265.    
   82  513 -3.315 18280.    
   83  518 -2.612 18293.    
   78  480 -1.880 18301.    
   80  509 -2.291 18364.    
   81  510 -2.344 18369.    
   81  509 -3.250 18369.    
   82  511 -2.328 18378.    
   82  510 -3.394 18378.    
  464  125 -7.855 18438.    
  461  119 -1.505 18484.    
  462  120 -5.997 18485.    
  462  119 -1.505 18485.    
  463  119 -1.505 18487.    
   79  492 -3.259 18520.    
   75  468 -5.575 18576.    
  460  107 -3.554 18648.    
   83  514 -2.706 18787.    
  463  118 -6.010 18845.    
   83  513 -6.012 18872.    
   83  437 -5.300 18874.    
  462  117 -6.020 18879.    
  453   84 -0.540 18925.    
  467  126 -2.533 18936.    
  454   85 -0.591 18970.    
  460  105 -1.380 18970.    
  454   84 -1.509 19022.    
  455   86 -0.578 19046.    
  467  125 -2.366 19082.    
  464  120 -1.509 19096.    
  455   85 -1.662 19115.    
   81  438 -4.237 19166.    
  455   84 -3.221 19168.    
   82  507 -4.127 19173.    
   67  452 -2.204 19255.    
   80  501 -2.094 19304.    
  441   63 -1.000 19309.    
   81  502 -2.146 19310.    
   82  503 -2.130 19320.    
   85  433 -5.038 19385.    
  460  104 -2.006 19389.    
  442   64 -1.128 19453.    
   86  433 -5.048 19456.    
  442   63 -1.606 19506.    
  464  115 -6.845 19581.    
   84  524 -6.199 19655.    
   83  508 -2.796 19686.    
  443   65 -1.087 19777.    
  452   79 -1.418 19778.    
   69  464 -0.082 19815.    
   85  435 -4.981 19828.    
   67  451 -0.078 19853.    
  443   64 -1.837 19862.    
  443   63 -3.014 19917.    
   67  450 -0.306 19934.    
   67  449 -0.779 19962.    
   83  504 -2.212 19971.    
  445   78 -2.318 20037.    
  467  118 -1.944 20199.    
  466  117 -2.020 20208.    
  465  116 -1.881 20231.    
  467  117 -2.721 20240.    
  466  116 -2.483 20247.    
  466  115 -3.358 20277.    
  467  116 -3.883 20279.    
  467  115 -4.041 20309.    
   81  500 -5.107 20330.    
   84  516 -5.806 20370.    
   84  515 -4.901 20370.    
  446   78 -6.334 20398.    
   85  517 -5.961 20429.    
   85  516 -4.933 20429.    
   85  515 -5.953 20429.    
  447   78 -1.333 20468.    
  461  109 -1.170 20494.    
  462  109 -1.170 20495.    
  463  109 -1.170 20497.    
   68  453 -3.289 20507.    
   69  462 -3.884 20519.    
  465  113 -2.283 20540.    
  466  113 -2.283 20556.    
  467  113 -2.283 20590.    
   81  496 -4.400 20782.    
   80  493 -1.800 20796.    
   81  494 -1.852 20804.    
   81  493 -2.758 20804.    
   82  495 -1.836 20815.    
   82  494 -2.902 20815.    
  462  105 -6.587 20922.    
   70  467 -3.108 20922.    
   71  467 -2.152 20938.    
   70  466 -1.932 20956.    
   72  467 -1.548 20962.    
   71  466 -1.676 20973.    
   70  465 -1.808 20973.    
  445   76 -5.500 21074.    
   83  500 -2.861 21078.    
   77  476 -0.840 21114.    
  453   83 -3.863 21151.    
   84  509 -4.816 21216.    
   78  476 -3.423 21246.    
  464  110 -1.016 21247.    
   79  485 -2.470 21300.    
   83  499 -7.199 21331.    
   86  511 -4.809 21366.    
  455   83 -4.819 21454.    
  468  154 -0.531 21523.    
   83  496 -1.896 21564.    
   83  494 -4.323 21587.    
   83  493 -4.938 21587.    
  460  101 -3.786 21617.    
  464  105 -6.837 21708.    
  468  149 -6.656 21714.    
   71  464 -4.071 21772.    
   72  464 -5.784 21799.    
   87  523 -3.604 21887.    
   87  434 -3.699 21888.    
  453   80 -2.188 21969.    
  454   82 -3.176 22077.    
  454   81 -2.227 22090.    
  465  106 -1.364 22111.    
  466  107 -1.490 22112.    
  460   97 -1.024 22112.    
  467  108 -1.437 22124.    
  468  147 -1.468 22126.    
  466  106 -1.967 22130.    
  467  107 -2.191 22150.    
  467  106 -3.366 22169.    
  468  145 -3.872 22216.    
  455   82 -2.168 22274.    
   76  475 -1.594 22278.    
  455   81 -3.053 22288.    
   76  474 -1.815 22298.    
   76  473 -2.292 22308.    
  459   91 -2.285 22456.    
   84  501 -4.735 22481.    
  466  105 -3.690 22566.    
   87  519 -2.064 22597.    
   87  436 -2.161 22599.    
   70  461  0.039 22608.    
   71  462 -0.012 22625.    
   71  461 -0.915 22627.    
   72  463  0.002 22651.    
   72  462 -1.061 22654.    
  468  143 -2.485 22684.    
   69  460 -1.095 22821.    
  468  141 -2.451 22943.    
   82  491 -2.924 23037.    
  459   89 -0.955 23054.    
  468  139 -4.937 23113.    
  466  104 -8.574 23161.    
   67  447 -4.193 23272.    
   88  524 -2.098 23333.    
   81  489 -3.886 23410.    
   83  492 -2.832 23439.    
   80  486 -1.396 23450.    
   81  487 -1.449 23459.    
   81  486 -2.354 23460.    
   82  488 -1.433 23473.    
   82  487 -2.497 23474.    
   78  475 -8.153 23568.    
   78  474 -7.450 23591.    
   87  513 -2.711 23603.    
  465  103 -1.952 23615.    
  466  103 -1.953 23637.    
  467  103 -1.953 23681.    
  460   96 -1.669 23757.    
  468  137 -2.960 23818.    
   67  445 -4.980 23854.    
   83  491 -5.787 23986.    
   83  440 -5.504 23995.    
  450   78 -3.100 24002.    
  458   85 -3.835 24095.    
   88  520 -1.039 24116.    
  450   77 -2.692 24173.    
  463  102 -3.957 24177.    
  462  101 -3.990 24188.    
  461  100 -4.000 24196.    
   85  499 -9.355 24285.    
   73  466 -5.610 24377.    
  468  133 -6.313 24385.    
   83  489 -1.475 24407.    
   83  487 -3.865 24460.    
   78  472 -1.682 24473.    
   84  494 -5.570 24531.    
   84  493 -4.662 24531.    
   85  494 -4.693 24617.    
  461   98 -0.693 24619.    
  462   98 -0.693 24621.    
  463   98 -0.693 24624.    
   74  466 -6.280 24661.    
   74  465 -6.161 24684.    
   78  470 -5.487 24727.    
   86  495 -4.653 24732.    
   86  494 -5.824 24732.    
  462   97 -6.350 24810.    
   87  508 -6.664 24889.    
  452   78 -1.186 25067.    
   87  507 -2.727 25114.    
   75  467 -5.885 25150.    
   88  514 -2.940 25220.    
  464  101 -7.640 25245.    
  452   77 -0.783 25253.    
   88  437 -7.129 25378.    
   71  460 -4.463 25457.    
  449   76 -0.555 25461.    
  450   76 -0.562 25507.    
  451   76 -0.560 25640.    
  464   99 -0.841 25712.    
  468  127 -3.332 25773.    
   89  526 -4.399 25872.    
   90  526 -7.365 25875.    
  464   97 -4.053 25923.    
  468  124 -3.694 26145.    
  469  154 -6.436 26200.    
  470  154 -5.729 26202.    
  471  153 -2.451 26264.    
  469  152 -3.252 26265.    
  470  152 -2.494 26266.    
  469  151 -2.512 26267.    
  465  100 -0.877 26398.    
  466  101 -1.004 26413.    
  466  100 -1.480 26425.    
  467  102 -0.955 26452.    
  467  101 -1.704 26468.    
  472  152 -5.667 26560.    
  472  150 -6.136 26598.    
   91  526 -1.548 26669.    
  452   76 -2.488 26712.    
   81  485 -4.860 26766.    
   88  508 -2.378 26868.    
   84  492 -8.582 26950.    
   74  461 -7.644 26980.    
   94  526 -5.291 27121.    
  466   97 -3.668 27156.    
  467   97 -4.377 27214.    
  470  146 -5.192 27228.    
  471  146 -4.227 27230.    
  470  145 -4.237 27236.    
  469  144 -4.233 27238.    
   91  525 -0.719 27334.    
   90  435 -4.272 27343.    
   79  476 -1.551 27472.    
  472  145 -5.901 27551.    
   87  499 -2.532 27579.    
   87  439 -2.628 27586.    
  473  151 -2.375 27670.    
  474  152 -2.477 27683.    
  474  151 -2.977 27686.    
  475  153 -2.388 27711.    
  475  152 -3.174 27715.    
  475  150 -3.405 27757.    
   94  525 -5.007 27809.    
   94  433 -0.844 27817.    
  453   79 -4.833 27817.    
  457   83 -3.018 27896.    
  473  149 -3.281 27910.    
  458   83 -4.150 27933.    
  475  149 -3.886 27958.    
   91  524 -1.469 27994.    
   83  485 -2.553 28076.    
   91  434 -4.792 28094.    
   81  484 -2.823 28218.    
   91  522 -1.983 28222.    
   80  483 -2.601 28223.    
   80  482 -2.477 28232.    
   81  483 -2.346 28237.    
   82  484 -2.214 28239.    
  468  117 -4.012 28301.    
   84  487 -5.523 28309.    
   84  486 -4.614 28310.    
   85  488 -5.668 28423.    
   85  487 -4.644 28424.    
   85  486 -5.661 28425.    
  468  115 -2.556 28437.    
   89  518 -3.897 28485.    
   90  517 -4.220 28499.    
   90  516 -4.329 28499.    
   90  515 -4.474 28500.    
  468  114 -3.069 28531.    
   93  523 -2.761 28579.    
   93  434 -2.284 28581.    
   94  523 -2.165 28595.    
  472  141 -3.629 28679.    
   93  435 -2.023 28723.    
   94  521 -2.062 28739.    
   94  435 -3.115 28739.    
   76  468 -4.918 28900.    
  472  139 -5.567 28944.    
  468  113 -6.707 28990.    
   81  480 -3.351 29081.    
   91  520 -2.191 29127.    
   80  477 -0.851 29218.    
   81  478 -0.904 29231.    
   82  479 -0.888 29252.    
   68  452  0.078 29280.    
  456   80 -1.139 29321.    
  457   81 -1.267 29323.    
  457   80 -1.750 29337.    
  458   82 -1.210 29341.    
  458   81 -1.980 29364.    
   91  518 -1.888 29454.    
   91  515 -5.821 29466.    
   88  500 -1.963 29529.    
   93  520 -5.210 29651.    
  460   93 -3.868 29653.    
   83  484 -5.055 29678.    
  473  142 -2.632 29705.    
  474  142 -2.632 29723.    
  475  142 -2.632 29759.    
   93  436 -2.941 29806.    
   94  519 -2.826 29820.    
   92  515 -1.922 29989.    
   93  516 -1.974 30001.    
   93  515 -2.879 30001.    
   94  517 -1.961 30018.    
   94  516 -3.026 30018.    
   63  444 -6.165 30140.    
   89  512 -3.663 30162.    
   90  511 -4.011 30182.    
   90  510 -4.119 30183.    
   90  509 -4.264 30183.    
  460   91 -0.657 30196.    
  474  139 -2.519 30284.    
  475  140 -2.457 30308.    
  475  139 -3.221 30322.    
  472  135 -3.423 30493.    
  471  134 -3.549 30544.    
  469  133 -4.347 30567.    
  470  133 -3.587 30569.    
  469  132 -3.591 30582.    
   83  480 -0.926 30635.    
   91  514 -2.410 30754.    
   77  468 -0.171 30827.    
   69  459 -0.683 30860.    
   68  450 -1.870 30880.    
  472  133 -5.058 30967.    
   91  437 -5.622 30990.    
  465   95 -1.457 31010.    
  466   95 -1.458 31048.    
   78  468 -4.173 31109.    
  467   95 -1.459 31124.    
   91  512 -1.718 31250.    
   91  509 -5.651 31269.    
   93  514 -5.487 31338.    
  469  129 -1.339 31443.    
  470  129 -1.339 31445.    
  471  129 -1.339 31448.    
   79  474 -5.457 31523.    
   93  513 -4.139 31578.    
   93  437 -3.664 31583.    
   94  513 -3.561 31597.    
  476  154 -0.799 31708.    
  473  136 -2.432 31754.    
  474  136 -2.432 31774.    
  475  136 -2.432 31816.    
   92  509 -1.748 31859.    
  472  129 -1.323 31866.    
   93  510 -1.800 31872.    
   94  511 -1.786 31892.    
   75  460 -4.637 31966.    
  474  135 -3.959 31984.    
  475  135 -4.606 32026.    
  476  149 -7.385 32122.    
  468  107 -4.957 32181.    
   87  491 -2.153 32185.    
   87  440 -2.249 32201.    
  475  134 -2.096 32517.    
   89  505 -1.580 32525.    
   90  505 -1.580 32530.    
   89  504 -3.617 32772.    
  470  127 -3.982 32783.    
   90  503 -3.797 32808.    
   90  502 -3.905 32809.    
   90  501 -4.050 32810.    
  476  147 -1.358 33034.    
  468  105 -2.275 33153.    
   91  508 -2.472 33239.    
  472  127 -3.361 33241.    
  470  125 -4.320 33293.    
  471  125 -3.361 33296.    
  470  124 -3.527 33386.    
  469  123 -3.413 33435.    
   91  438 -5.976 33649.    
  459   86 -4.910 33659.    
  472  125 -7.969 33765.    
  472  124 -3.791 33861.    
  459   85 -5.335 33875.    
   93  508 -5.639 33923.    
  459   84 -5.978 34040.    
   91  504 -1.521 34061.    
   91  501 -5.450 34097.    
  476  143 -6.778 34291.    
   92  438 -6.002 34334.    
   93  507 -6.947 34342.    
   93  438 -6.504 34350.    
   88  492 -1.477 34381.    
  468  104 -2.945 34455.    
  476  142 -6.879 34524.    
  462   94 -4.106 34691.    
  463   94 -3.148 34697.    
  461   93 -3.947 34710.    
  462   93 -3.187 34714.    
   92  501 -1.542 34800.    
   93  502 -1.594 34815.    
   93  501 -2.498 34816.    
   94  503 -1.580 34838.    
   94  502 -2.644 34838.    
  476  141 -1.928 34889.    
  474  127 -2.500 35020.    
  473  126 -2.183 35072.    
  474  126 -2.183 35096.    
  475  126 -2.183 35147.    
  476  139 -4.330 35283.    
  469  119 -1.038 35500.    
  470  120 -4.817 35500.    
  470  119 -1.038 35503.    
  471  119 -1.038 35506.    
   95  523 -3.373 35580.    
  475  125 -1.858 35654.    
  474  124 -2.039 35709.    
  473  123 -1.791 35743.    
  475  124 -2.742 35762.    
  474  123 -2.393 35768.    
  475  123 -3.792 35821.    
   71  459 -4.403 35884.    
   72  459 -5.915 35956.    
  472  120 -1.026 36038.    
   86  481 -7.973 36472.    
  445   74 -6.722 36562.    
  446   75 -6.194 36582.    
  471  118 -3.020 36852.    
   89  497 -1.214 36854.    
   90  497 -1.216 36859.    
  461   90  0.134 36964.    
  462   90  0.134 36968.    
  463   90  0.134 36975.    
  470  117 -3.080 36983.    
  469  116 -3.077 37112.    
  470  115 -4.399 37217.    
   89  496 -3.213 37292.    
   81  476 -4.132 37294.    
   90  495 -3.463 37365.    
   90  494 -3.571 37367.    
   90  493 -3.716 37368.    
   96  524 -2.530 37388.    
   91  500 -2.541 37411.    
   95  519 -2.049 37495.    
   95  436 -2.146 37501.    
  472  117 -4.280 37568.    
  476  135 -2.256 37611.    
   86  479 -4.600 37628.    
  464   91 -2.630 37779.    
  472  115 -2.892 37808.    
  447   74 -6.613 38021.    
   91  499 -7.266 38217.    
   91  439 -7.258 38232.    
   93  500 -5.898 38279.    
  476  133 -4.282 38335.    
  460   88 -1.029 38488.    
   91  496 -1.215 38970.    
   92  439 -3.181 39118.    
   93  499 -3.757 39123.    
   93  439 -3.280 39139.    
   94  499 -3.137 39153.    
   97  526 -1.356 39384.    
  465   92 -0.252 39449.    
  466   93 -0.380 39488.    
  464   89  0.110 39502.    
  467   94 -0.334 39581.    
  467   93 -1.081 39612.    
  475  118 -1.446 39764.    
  474  117 -1.521 39856.    
   83  476 -1.904 39888.    
  475  117 -2.220 39921.    
   92  493 -1.225 39971.    
  473  116 -1.377 39977.    
   93  494 -1.276 39991.    
   93  493 -2.180 39992.    
  474  116 -1.980 40008.    
   94  495 -1.262 40021.    
   94  494 -2.326 40023.    
  475  116 -3.379 40074.    
  474  115 -2.814 40127.    
  475  115 -3.535 40193.    
  474  114 -6.307 40315.    
   95  513 -2.517 40349.    
   95  437 -2.614 40358.    
  466   91 -3.152 40456.    
  467   91 -3.999 40586.    
  455   78 -8.100 40627.    
   97  525 -0.557 40852.    
  102  526 -5.096 41099.    
  473  113 -1.850 41202.    
  474  113 -1.850 41236.    
  475  113 -1.851 41306.    
  476  128 -2.957 41338.    
   98  433 -3.559 41391.    
  478  154 -4.925 41422.    
  478  153 -2.942 41573.    
  479  153 -1.986 41577.    
  477  152 -2.786 41581.    
  478  152 -2.029 41583.    
  477  151 -2.047 41586.    
  480  154 -2.521 41726.    
  476  127 -2.556 41882.    
  480  152 -4.634 41890.    
  459   83 -2.510 41985.    
  480  150 -6.087 41986.    
  468  101 -4.964 42180.    
  468  100 -5.715 42209.    
   97  524 -1.378 42344.    
   96  514 -2.362 42481.    
  101  525 -4.065 42657.    
  102  433 -0.674 42718.    
   97  522 -1.635 42870.    
  476  124 -3.115 42871.    
   87  484 -1.479 43337.    
   87  483 -1.701 43382.    
   87  482 -2.178 43403.    
   99  522 -3.400 43458.    
   98  521 -3.748 43466.    
   98  435 -3.622 43466.    
  483  154 -4.301 43597.    
  484  154 -5.317 43643.    
  469  109 -0.625 43738.    
  470  109 -0.625 43742.    
  471  109 -0.625 43747.    
  484  153 -1.734 43812.    
  469  107 -3.387 43898.    
  470  107 -2.627 43902.    
  469  106 -2.641 43971.    
  479  146 -3.343 44051.    
  480  147 -3.387 44054.    
  477  145 -4.129 44064.    
  478  145 -3.370 44067.    
  477  144 -3.374 44073.    
  468   97 -3.384 44106.    
  100  524 -6.745 44253.    
   95  508 -6.328 44259.    
  101  524 -4.144 44286.    
  454   76 -4.266 44331.    
  482  149 -3.896 44363.    
  483  149 -4.501 44385.    
  101  434 -2.244 44538.    
  472  110 -0.639 44551.    
  102  523 -2.128 44582.    
  483  148 -4.377 44653.    
  101  435 -1.678 44883.    
  102  521 -1.717 44932.    
  102  435 -2.769 44932.    
   95  507 -2.385 44975.    
   97  520 -2.085 44993.    
   81  475 -1.982 45093.    
   80  474 -1.760 45141.    
   82  475 -1.374 45147.    
   81  474 -1.505 45176.    
   80  473 -1.636 45182.    
  459   81 -4.760 45302.    
   97  436 -5.090 45351.    
   88  485 -0.817 45375.    
   91  492 -2.485 45555.    
  470  105 -4.838 45730.    
   89  490 -0.687 45732.    
   90  490 -0.688 45740.    
   97  518 -1.502 45777.    
   97  515 -5.148 45805.    
  483  147 -5.406 46145.    
  484  147 -5.488 46196.    
   99  518 -3.181 46448.    
   98  517 -3.542 46461.    
   98  516 -3.650 46461.    
   98  515 -3.795 46463.    
  482  144 -2.432 46523.    
   79  468 -0.441 46560.    
  472  105 -2.381 46627.    
   89  489 -2.732 46701.    
   90  489 -6.522 46709.    
   89  487 -6.043 46895.    
   90  488 -3.000 46901.    
   90  487 -3.109 46904.    
   90  486 -3.254 46906.    
  477  141 -6.098 47019.    
  478  141 -5.137 47022.    
  101  520 -4.862 47192.    
   96  508 -1.912 47374.    
  480  141 -3.053 47415.    
  101  519 -3.510 47577.    
  101  436 -3.034 47585.    
  102  519 -2.928 47631.    
  485  154 -1.296 47640.    
  479  140 -3.014 47712.    
  478  139 -3.048 47741.    
  485  152 -3.802 47854.    
  475  108 -0.892 47983.    
  474  107 -0.943 48010.    
  100  515 -1.540 48047.    
  473  106 -0.815 48051.    
  101  516 -1.592 48084.    
  474  106 -1.417 48097.    
  475  107 -1.643 48104.    
  102  517 -1.579 48139.    
  102  516 -2.644 48140.    
   81  472 -2.331 48527.    
   82  472 -4.876 48590.    
   76  467  0.060 48711.    
   76  466 -0.164 48899.    
   76  465 -0.642 48992.    
   97  514 -2.240 48997.    
   93  491 -2.821 49089.    
  483  142 -2.371 49105.    
   93  440 -2.345 49128.    
   94  491 -2.211 49136.    
  484  142 -2.371 49163.    
   91  489 -0.760 49362.    
  476  115 -2.183 49400.    
   80  469  0.043 49501.    
   81  470 -0.010 49537.    
   81  469 -0.914 49543.    
   82  471  0.007 49596.    
   82  470 -1.057 49603.    
   88  483 -4.698 49770.    
  483  141 -4.320 49846.    
  484  141 -4.846 49906.    
  450   75 -4.471 50066.    
  474  105 -3.040 50204.    
   97  512 -1.308 50266.    
  475  105 -3.811 50308.    
  482  138 -1.891 50640.    
  483  139 -2.016 50655.    
  483  138 -2.493 50669.    
  484  140 -1.962 50679.    
  485  147 -1.309 50698.    
  484  139 -2.717 50716.    
   93  489 -4.471 50884.    
   94  489 -5.229 50935.    
   99  512 -2.886 51077.    
   92  486 -0.750 51082.    
   93  487 -0.802 51114.    
   93  486 -1.705 51117.    
   94  488 -0.787 51162.    
   94  487 -1.851 51166.    
   84  476 -7.306 51254.    
  446   72 -3.266 51566.    
  446   71 -2.387 51715.    
  447   72 -4.358 52014.    
  477  135 -5.413 52103.    
  478  135 -4.516 52106.    
  449   74 -4.031 52147.    
  447   71 -4.586 52165.    
  447   70 -3.422 52266.    
  101  437 -4.235 52283.    
  102  513 -4.193 52334.    
  450   74 -4.601 52340.    
  480  135 -2.772 52589.    
  451   74 -4.665 52904.    
   83  472 -0.067 53013.    
  102  511 -1.377 53147.    
  474  104 -5.715 53251.    
  479  134 -2.771 53426.    
  477  133 -3.570 53502.    
  478  133 -2.814 53506.    
   95  499 -2.027 53545.    
  477  132 -2.819 53549.    
   95  439 -2.124 53574.    
  485  143 -2.633 53722.    
  448   72 -2.349 53733.    
  480  133 -4.348 54015.    
   83  470 -2.374 54221.    
   83  469 -3.134 54228.    
  485  142 -6.388 54294.    
   77  466 -5.947 54682.    
  452   75 -4.255 54932.    
  482  136 -2.115 54933.    
  483  136 -2.115 54967.    
  484  136 -2.116 55039.    
  485  141 -1.619 55202.    
  468   95 -5.432 55380.    
   66  444 -2.755 55458.    
  103  523 -3.095 55533.    
  103  434 -3.191 55540.    
   97  508 -2.180 55622.    
  473  103 -1.350 55769.    
  474  103 -1.350 55831.    
  105  526 -1.246 55864.    
  475  103 -1.351 55959.    
  485  139 -3.978 56195.    
  477  129 -1.004 56244.    
  478  129 -1.004 56248.    
  479  129 -1.004 56254.    
   97  438 -5.832 56779.    
  480  129 -0.987 56811.    
  466   88 -5.132 56873.    
  484  134 -1.639 57174.    
  483  133 -1.696 57193.    
  482  132 -1.566 57210.    
  483  132 -2.168 57247.    
  484  133 -2.397 57271.    
  452   74 -8.197 57681.    
   97  504 -1.093 57961.    
   97  502 -4.864 58061.    
   97  501 -4.729 58065.    
   98  505 -1.025 58223.    
   99  505 -1.029 58246.    
  104  434 -7.335 58353.    
  481  131 -1.824 58778.    
  481  130 -1.346 58781.    
  105  525 -0.470 58866.    
   99  504 -2.892 59042.    
  481  129 -3.556 59051.    
   98  503 -2.994 59120.    
   98  502 -3.102 59122.    
   98  501 -3.247 59126.    
  110  526 -3.379 59168.    
  452   73 -5.039 59298.    
  103  520 -6.181 59728.    
  100  438 -4.119 60265.    
  101  507 -4.640 60302.    
  103  519 -1.953 60346.    
  103  436 -2.050 60360.    
  102  507 -3.951 60389.    
  485  137 -2.363 60555.    
  478  127 -3.149 60678.    
  480  127 -2.634 61333.    
   78  464 -1.055 61569.    
  101  504 -4.613 61662.    
  100  501 -1.109 61715.    
  101  502 -1.161 61775.    
  101  501 -2.065 61779.    
  102  503 -1.146 61865.    
  102  502 -2.210 61867.    
  105  524 -1.373 62013.    
  485  135 -1.648 62343.    
  108  433 -0.546 62439.    
  479  125 -2.551 62455.    
  477  124 -3.473 62772.    
  478  124 -2.726 62777.    
   70  458 -3.076 62802.    
   71  458 -2.133 62947.    
  477  123 -2.608 62955.    
   70  457 -1.922 62990.    
  104  520 -1.204 62993.    
   70  456 -1.807 63067.    
   71  457 -1.678 63136.    
  105  522 -1.363 63148.    
   72  458 -1.548 63169.    
  480  124 -3.052 63479.    
  487  154 -4.781 63594.    
  445   69 -3.349 63765.    
  489  154 -2.254 63955.    
  488  153 -1.787 63958.    
  486  152 -2.584 63972.    
  487  152 -1.827 63976.    
  486  151 -1.843 63984.    
  483  128 -5.856 64146.    
  487  150 -7.966 64199.    
  489  153 -6.067 64317.    
  489  152 -4.401 64340.    
  485  133 -3.585 64357.    
  489  150 -5.968 64566.    
  471  102 -2.042 64794.    
  469  101 -2.842 64874.    
  470  101 -2.082 64883.    
  469  100 -2.099 64945.    
  486  149 -8.827 65281.    
  483  127 -2.030 65463.    
  476  105 -1.261 65615.    
  482  126 -1.780 65682.    
  483  126 -1.780 65730.    
  484  126 -1.781 65833.    
  106  434 -2.179 66116.    
  107  523 -2.784 66273.    
  107  434 -2.308 66282.    
  108  523 -2.196 66504.    
  472  101 -4.761 66703.    
  107  435 -1.394 67049.    
   91  485 -1.955 67097.    
  108  521 -1.432 67286.    
  108  435 -2.484 67286.    
  440  152 -1.571 67387.    
  109  521 -3.258 67427.    
  109  435 -3.133 67427.    
  491  153 -1.389 67434.    
  491  152 -2.145 67460.    
  484  125 -1.389 67637.    
  491  150 -4.502 67708.    
  105  520 -2.049 67865.    
  483  124 -1.565 67914.    
  469   98  0.039 68082.    
  470   98  0.039 68092.    
  471   98  0.040 68105.    
  465   87 -0.382 68198.    
  447   69 -2.377 68340.    
  466   87 -0.383 68378.    
   97  500 -2.124 68382.    
  105  436 -4.975 68682.    
  467   87 -0.386 68749.    
   78  462 -5.694 68913.    
  491  149 -4.982 68917.    
   95  492 -5.360 69152.    
  487  147 -5.186 69164.    
   87  476 -4.373 69205.    
  470   97 -4.893 69556.    
  489  147 -3.044 69590.    
  105  518 -1.176 69665.    
  105  516 -4.008 69726.    
  488  146 -2.908 70005.    
  472   99  0.063 70067.    
  472   98 -3.726 70100.    
  489  145 -4.915 70487.    
  478  120 -3.917 70693.    
  477  119 -0.625 70696.    
  478  119 -0.625 70703.    
  479  119 -0.624 70712.    
  476  104 -1.900 70918.    
   97  499 -6.248 71123.    
  104  514 -1.895 71131.    
  480  120 -0.614 71585.    
  472   97 -1.697 71652.    
  106  520 -7.336 72137.    
  492  152 -4.126 72204.    
  457   78 -5.171 72207.    
  492  151 -5.961 72220.    
  107  520 -4.318 72335.    
  458   78 -5.350 72456.    
  492  150 -5.062 72489.    
   89  481  0.233 72722.    
   90  481  0.234 72744.    
  106  519 -4.886 73041.    
  107  436 -3.502 73264.    
  485  128 -2.010 73297.    
  108  519 -3.428 73525.    
  101  500 -5.138 73593.    
   98  497 -0.568 73722.    
   99  497 -0.572 73759.    
   97  496 -0.725 73775.    
   97  494 -4.209 74046.    
   95  491 -1.375 74147.    
  473  100 -0.137 74257.    
  474  101 -0.266 74274.    
  474  100 -0.740 74367.    
  475  102 -0.220 74368.    
  475  101 -0.966 74501.    
  481  122 -1.263 74574.    
  481  121 -0.786 74579.    
  108  517 -1.245 74743.    
  108  516 -2.309 74744.    
  109  517 -3.010 74917.    
  109  516 -3.118 74918.    
  109  515 -3.263 74922.    
  485  127 -1.666 75022.    
   84  472 -4.747 75165.    
  481  120 -3.705 75178.    
  481  119 -3.162 75188.    
   98  496 -5.866 75497.    
   99  496 -2.309 75535.    
   98  495 -2.537 75775.    
   98  494 -2.645 75781.    
   98  493 -2.790 75784.    
  462   85 -4.617 75820.    
   85  472 -7.980 75981.    
  478  118 -3.085 76249.    
  479  118 -2.129 76260.    
   89  480 -1.956 76433.    
  461   84 -4.600 76630.    
  101  499 -3.154 76777.    
  477  117 -2.952 76821.    
  478  117 -2.190 76829.    
  101  439 -2.677 76837.    
  102  499 -2.529 76919.    
   96  492 -0.807 77070.    
   91  483 -4.945 77175.    
  477  116 -2.191 77390.    
  105  514 -2.090 77405.    
   90  479 -2.216 77490.    
   90  478 -2.324 77501.    
   90  477 -2.469 77509.    
  115  526 -1.258 77531.    
  477  115 -4.227 77834.    
  478  115 -3.566 77842.    
  480  117 -3.480 77884.    
  485  124 -2.191 78258.    
  489  141 -2.653 78366.    
  117  526 -2.805 78562.    
  492  147 -1.188 78883.    
  105  437 -5.929 78916.    
  480  115 -2.055 78925.    
  487  140 -3.518 79722.    
  488  140 -2.561 79730.    
  486  139 -3.354 79809.    
  487  139 -2.597 79815.    
  486  138 -2.605 79844.    
  100  493 -0.724 80091.    
  101  494 -0.775 80195.    
  101  493 -1.679 80199.    
  102  495 -0.760 80344.    
  102  494 -1.823 80350.    
  460   83 -0.160 80620.    
  105  512 -0.924 80623.    
   93  484 -1.971 80805.    
   92  483 -1.755 80874.    
   94  484 -1.363 80933.    
   92  482 -1.630 80947.    
   93  483 -1.495 80962.    
  491  142 -2.067 81005.    
  103  507 -1.910 82401.    
  103  438 -2.008 82446.    
  440  141 -4.052 82933.    
   76  460 -6.554 82981.    
  107  514 -4.406 83274.    
  449   70 -0.534 83275.    
  115  525 -0.512 83435.    
  450   71 -0.667 83511.    
  450   70 -1.143 83768.    
   91  480 -0.053 83830.    
   81  468 -2.708 84098.    
  484  118 -0.904 84132.    
  451   72 -0.617 84556.    
  483  117 -0.978 84666.    
  106  437 -3.906 84752.    
  484  117 -1.676 84839.    
  451   71 -1.367 84957.    
   91  477 -3.933 85097.    
  440  139 -1.725 85195.    
  491  140 -1.550 85206.    
  451   70 -2.543 85223.    
  482  116 -0.833 85277.    
  483  116 -1.435 85358.    
  118  433 -0.524 85413.    
  113  523 -2.779 85706.    
  113  434 -2.876 85721.    
  483  115 -2.247 85898.    
  104  508 -1.425 86003.    
  484  115 -2.987 86076.    
  120  526 -2.927 86215.    
  492  143 -2.016 86453.    
  106  509 -0.948 86871.    
   88  476  0.307 87022.    
  107  510 -1.001 87155.    
  107  509 -1.906 87157.    
  108  511 -0.987 87551.    
  108  510 -2.051 87555.    
  456   76 -1.594 87629.    
  110  512 -2.733 87688.    
  457   76 -1.594 87779.    
  109  511 -2.691 87790.    
  109  510 -2.800 87794.    
  109  509 -2.944 87796.    
  458   76 -1.595 88147.    
   93  480 -3.904 88317.    
   94  480 -4.394 88470.    
  114  524 -2.877 88973.    
  468   93 -2.828 89506.    
   92  477  0.016 89616.    
   93  478 -0.035 89713.    
   93  477 -0.938 89724.    
   94  479 -0.019 89855.    
   94  478 -1.083 89870.    
  114  434 -7.738 89998.    
  492  141 -1.285 90352.    
  115  434 -3.861 90949.    
  482  113 -1.273 91056.    
  483  113 -1.273 91148.    
  484  113 -1.274 91348.    
  116  523 -4.111 91545.    
  115  522 -1.190 92306.    
  117  434 -2.733 92372.    
  115  435 -2.639 92400.    
  487  135 -4.007 92814.    
  118  523 -2.614 93206.    
  120  525 -2.712 93578.    
  489  135 -2.289 93584.    
  119  433 -2.695 93642.    
  460   81 -2.416 93809.    
  117  435 -1.199 93869.    
  460   80 -6.365 93960.    
  468   91  0.111 94640.    
  118  521 -1.224 94750.    
  105  508 -1.810 95347.    
  440  137 -5.731 95634.    
  113  520 -5.977 96124.    
  487  134 -3.213 97067.    
  488  134 -2.257 97079.    
  486  133 -3.057 97341.    
  487  133 -2.301 97349.    
  486  132 -2.307 97498.    
  496  154 -2.315 97716.    
  113  519 -1.776 97734.    
  113  436 -1.873 97771.    
  452   71 -2.514 97988.    
  495  153 -1.791 98095.    
  493  152 -2.584 98134.    
  494  152 -1.827 98140.    
  440  136 -1.722 98143.    
  493  151 -1.840 98162.    
  491  136 -1.723 98299.    
  452   70 -3.140 98342.    
   83  468 -0.665 98551.    
  496  152 -4.303 98620.    
  105  507 -6.368 98734.    
  105  438 -6.731 98798.    
  496  150 -5.899 99151.    
