 gf1005                                                                          
 gf-cutoff: N/A,  ionization potential (Ky):   1273800.00    
 compr thres: 0.0000
          43          55  number of levels and lines
        0.0 2p *2P     1    1    2
     1310.0 2p *2P     1    2    4
   100261.0 s2p2 4PX   1    3    2
   100261.0 s2p2  4PX  1   16    2
   100704.0 s2p2 4PX   1    4    4
   100704.0 s2p2  4PX  1   17    4
   101347.0 s2p2 4PX   1    5    6
   101347.0 s2p2  4PX  1   18    6
   178992.0 s2p2 2D    1    6    6
   178992.0 s2p2  2D   1   19    6
   179021.0 s2p2 2D    1    7    4
   179021.0 s2p2  2D   1   20    4
   230853.0 s2p2  2S   1   21    2
   230853.0 s2p2 2S    1    8    2
   249292.0 s2p2  2P   1   22    2
   249292.0 s2p2 2P    1    9    2
   250112.0 s2p2  2P   1   23    4
   250112.0 s2p2 2P    1   10    4
   321576.0 2p3 *4SX   1   24    4
   405984.0 2p3 *2P    1   25    2
   406056.0 2p3 *2P    1   26    4
   722610.0 3s   2S    1   27    2
   722610.0 3s  2S     1   11    2
   771234.0 3p  *2P    1   28    2
   771234.0 3p *2P     1   12    2
   771557.0 3p  *2P    1   29    4
   771557.0 3p *2P     1   13    4
   816405.0 3d   2D    1   30    4
   833570.0 sp3s  *4P  1   31    2
   834050.0 sp3s *4PX  1   14    4
   834050.0 sp3s  *4P  1   32    4
   834810.0 sp3s *4PX  1   15    6
   834810.0 sp3s  *4P  1   33    6
   878525.0 sp3p   4D  1   34    6
   879177.0 sp3p   4D  1   35    8
   926370.0 sp3d  *4D  1   36    4
   926470.0 sp3d  *4D  1   37    6
   926770.0 sp3d  *4D  1   38    8
   928020.0 sp3d  *2D  1   39    6
   940260.0 sp3s' *2P  1   40    4
   945900.0 sp3d  *2F  1   41    6
   946700.0 sp3d  *2F  1   42    8
   952610.0 sp3d  *2P  1   43    2
    3   36 -0.120  1.2105E+02
    4   37 -0.322  1.2110E+02
    4   36 -0.550  1.2111E+02
    5   38 -0.218  1.2115E+02
    5   37 -0.868  1.2119E+02
    5   36 -1.818  1.2121E+02
    1   30 -0.271  1.2249E+02
    2   30 -0.267  1.2269E+02
    6   42 -4.548  1.3026E+02
    7   41 -5.442  1.3040E+02
    6   39 -5.198  1.3351E+02
    4   33 -1.632  1.3622E+02
    3   32 -1.361  1.3628E+02
    5   33 -1.448  1.3634E+02
    4   32 -2.152  1.3636E+02
    3   31 -2.051  1.3637E+02
    4   31 -1.652  1.3645E+02
    5   32 -1.808  1.3648E+02
    1   27 -1.551  1.3839E+02
    8   43 -4.761  1.3855E+02
    2   27 -1.552  1.3864E+02
    8   40 -4.761  1.4096E+02
    1   23 -1.071  3.9982E+02
    1   22 -0.771  4.0114E+02
    2   23 -0.672  4.0193E+02
    2   22 -1.372  4.0326E+02
    1   21 -1.521  4.3318E+02
    2   21 -1.522  4.3565E+02
    6   26 -1.358  4.4040E+02
    7   26 -2.142  4.4046E+02
    7   25 -1.442  4.4060E+02
    3   24 -1.101  4.5185E+02
    4   24 -1.102  4.5275E+02
    5   24 -1.098  4.5407E+02
    1   20 -0.871  5.5859E+02
    2   20 -1.872  5.6271E+02
    2   19 -0.912  5.6280E+02
    8   26 -0.951  5.7077E+02
    8   25 -1.251  5.7100E+02
    9   26 -1.401  6.3790E+02
    9   25 -1.101  6.3820E+02
   10   26 -1.002  6.4126E+02
   10   25 -1.702  6.4155E+02
    1   17 -9.301  9.9301E+02
    1   16 -9.301  9.9740E+02
    2   18 -9.602  9.9963E+02
    2   17 -9.602  1.0061E+03
    2   16 -9.602  1.0106E+03
   11   29 -0.471  2.0424E+03
   11   28 -0.771  2.0559E+03
   12   30 -0.650  2.2131E+03
   13   30 -0.646  2.2291E+03
   14   34 -1.282  2.2478E+03
   15   35 -1.178  2.2532E+03
   15   34 -1.828  2.2894E+03
