 gf2400                                                                          
 hist_cutoff = 0.10,   wl_binwidth = 1.0e+03km/s,   wl_max = 1.0e+05,   ionization potential (Ky):   54575.0000    
 line selection based on g*f*exp(-chi/kT), where 5000<T<40000 K
         492        5693  number of levels and lines
       0.00 (6S)4s a7S 1 4172    7
    7593.10 (6S)4s a5S 1 4173    5
    7750.70 d4s2 a5D   1 4174    1
    7810.80 d4s2 a5D   1 4175    3
    7927.40 d4s2 a5D   1 4176    5
    8095.20 d4s2 a5D   1 4177    7
    8307.60 d4s2 a5D   1 4178    9
   20517.40 (4G)4s a5G 1 4179    5
   20519.60 (4G)4s a5G 1 4180   13
   20520.90 (4G)4s a5G 1 4181    7
   20523.60 (4G)4s a5G 1 4182    9
   20523.90 (4G)4s a5G 1 4183   11
   21840.80 (4P)4s a5P 1 4184    7
   21847.80 (4P)4s a5P 1 4185    5
   21856.90 (4P)4s a5P 1 4186    3
   23163.20 d4s2 a3P   1 4187    1
   23305.00 (6S)4p z7P 1 8333    5
   23386.30 (6S)4p z7P 1 8334    7
   23498.80 (6S)4p z7P 1 8335    9
   23512.00 d4s2 a3P   1 4188    3
   23933.90 d4s2 a3H   1 4189    9
   24056.00 d4s2 a3H   1 4190   11
   24093.10 d4s2 a3P   1 4191    5
   24200.20 d4s2 a3H   1 4192   13
   24277.10 (4D)4s b5D 1 4193    1
   24282.40 (4D)4s b5D 1 4194    9
   24286.50 (4D)4s b5D 1 4195    3
   24299.80 (4D)4s b5D 1 4196    5
   24303.90 (4D)4s b5D 1 4197    7
   24833.80 (4G)4s a3G 1 4198    7
   24897.50 (4G)4s a3G 1 4199    9
   24940.60 d4s2 a3F   1 4200    5
   24971.10 (5D)sp z7F 1 8336    1
   25010.60 (5D)sp z7F 1 8337    3
   25038.50 (4G)4s a3G 1 4201   11
   25089.30 (5D)sp z7F 1 8338    5
   25106.30 d4s2 a3F   1 4202    7
   25177.40 d4s2 a3F   1 4203    9
   25206.00 (5D)sp z7F 1 8339    7
   25359.60 (5D)sp z7F 1 8340    9
   25548.60 (5D)sp z7F 1 8341   11
   25771.40 (5D)sp z7F 1 8342   13
   26787.50 (6S)4p z5P 1 8343    7
   26796.30 (6S)4p z5P 1 8344    5
   26801.90 (6S)4p z5P 1 8345    3
   27163.10 (4P)4s b3P 1 4204    1
   27176.10 (4P)4s b3P 1 4205    3
   27222.90 (4P)4s b3P 1 4206    5
   27300.10 (5D)sp z7D 1 8346    3
   27382.20 (5D)sp z7D 1 8347    5
   27500.40 (5D)sp z7D 1 8348    7
   27597.20 d4s2 b3G   1 4207    7
   27649.70 (5D)sp z7D 1 8349    9
   27703.80 d4s2 b3G   1 4208    9
   27728.80 (5D)sp y7P 1 8350    5
   27816.80 d4s2 b3G   1 4209   11
   27820.20 (5D)sp y7P 1 8351    7
   27825.30 (5D)sp z7D 1 8352   11
   27935.20 (5D)sp y7P 1 8353    9
   28637.00 (4D)4s a3D 1 4210    7
   28679.40 (4D)4s a3D 1 4211    3
   28682.20 (4D)4s a3D 1 4212    5
   29420.90 (5D)sp y5P 1 8354    3
   29584.60 (5D)sp y5P 1 8355    5
   29824.70 (5D)sp y5P 1 8356    7
   30787.30 (5D)sp z5F 1 8357    3
   30858.80 (5D)sp z5F 1 8358    5
   30965.60 (5D)sp z5F 1 8359    7
   31009.00 2D3)4s b3D 1 4213    7
   31028.30 2D3)4s b3D 1 4214    5
   31048.00 (2I)4s a3I 1 4215   15
   31048.80 2D3)4s b3D 1 4216    3
   31049.20 (2I)4s a3I 1 4217   13
   31055.30 (2I)4s a3I 1 4218   11
   31106.30 (5D)sp z5F 1 8360    9
   31280.10 (5D)sp z5F 1 8361   11
   31352.40 (4F)4s a5F 1 4219    3
   31355.30 (4F)4s a5F 1 4220    5
   31364.40 (4F)4s a5F 1 4221    7
   31377.90 (4F)4s a5F 1 4222    9
   31393.30 (4F)4s a5F 1 4223   11
   31987.10 d4s2 a1G   1 4224    9
   32097.30 d4s2 a1I   1 4225   13
   33040.10 2F1)4s b3F 1 4226    5
   33060.70 2F1)4s b3F 1 4227    7
   33113.20 2F1)4s b3F 1 4228    9
   33338.30 (5D)sp z5D 1 8362    1
   33423.80 (5D)sp z5D 1 8363    3
   33542.10 (5D)sp z5D 1 8364    5
   33671.50 (5D)sp z5D 1 8365    7
   33762.50 (5D)sp z3P 1 8366    1
   33762.60 (2I)4s b1I 1 4229   13
   33816.00 (5D)sp z5D 1 8367    9
   33897.30 (5D)sp z3P 1 8368    3
   33906.60 d4s2 c3D   1 4230    3
   33934.80 d4s2 c3D   1 4231    7
   33935.40 d4s2 c3D   1 4232    5
   34190.40 (5D)sp z3P 1 8369    5
  -34937.90 d4s2 1D    1 4170    5
   35398.00 d6 c5D     1 4233    9
   35501.20 d6 c5D     1 4234    7
   35572.90 d6 c5D     1 4235    5
   35618.50 d6 c5D     1 4236    3
   35640.70 d6 c5D     1 4237    1
   35807.60 (4F)4s c3F 1 4238    5
   35813.70 (4F)4s c3F 1 4239    7
   35863.00 (4F)4s c3F 1 4240    9
   35870.50 (2H)4s b3H 1 4241    9
   35884.20 (2H)4s b3H 1 4242   11
   35897.80 (5D)sp z3F 1 8370    5
   35933.90 (2H)4s b3H 1 4243   13
   36034.20 (5D)sp z3F 1 8371    7
   36212.10 (5D)sp z3F 1 8372    9
   36552.00 2F2)4s d3F 1 4244    7
   36558.40 2F2)4s d3F 1 4245    5
   36577.60 2F2)4s d3F 1 4246    9
   36895.70 (6S)5s e7S 1 4247    7
   37205.80 2G2)4s c3G 1 4248    7
   37233.50 2G2)4s c3G 1 4249   11
   37244.00 2G2)4s c3G 1 4250    9
   37883.40 (6S)5s e5S 1 4251    5
   38537.50 (2H)4s a1H 1 4252   11
   38597.00 (5D)sp z3D 1 8373    3
  -38675.90 (2F)4s 3F  2 4169   12
   38730.60 (5D)sp z3D 1 8374    5
   38911.30 (5D)sp z3D 1 8375    7
   39158.50 2G2)4s b1G 1 4253    9
  -40247.90 (2F)4s 1F  1 4168    7
   40906.40 (5D)sp y5F 1 8376    3
   40930.30 (5D)sp x5P 1 8377    3
   40971.30 (5D)sp y5F 1 8378    5
   40982.80 (5D)sp x5P 1 8379    5
   41043.40 (5D)sp x5P 1 8380    7
   41086.20 (5D)sp y5F 1 8381    7
   41224.70 (5D)sp y5F 1 8382    9
   41224.80 (5D)sp y5D 1 8383    1
   41289.10 (5D)sp y5D 1 8384    3
   41393.40 (5D)sp y5F 1 8385   11
   41409.00 (5D)sp y5D 1 8386    5
   41575.10 (5D)sp y5D 1 8387    7
   41782.10 (5D)sp y5D 1 8388    9
   42025.50 (3H)sp z5H 1 8389    7
   42079.70 (3H)sp z5H 1 8390    9
  -42110.40 (2S)4s 3S  1 4167    3
   42153.70 (3H)sp z5H 1 8391   11
   42218.30 a3P)sp x5D 1 8392    1
   42237.90 (6S)5p x7P 1 8393    5
   42252.10 (3H)sp z5H 1 8394   13
   42253.20 (6S)4d e7D 1 4254    3
   42253.90 (6S)5p x7P 1 8395    7
   42254.40 (6S)4d e7D 1 4255    5
   42256.10 (6S)4d e7D 1 4256    7
   42258.40 (6S)4d e7D 1 4257    9
   42261.20 (6S)4d e7D 1 4258   11
   42275.00 (6S)5p x7P 1 8396    9
   42292.80 a3P)sp x5D 1 8397    3
   42387.30 (3H)sp z5H 1 8398   15
   42438.80 a3P)sp x5D 1 8399    5
   42515.30 (4G)4p z5G 1 8400    5
   42538.70 (4G)4p z5G 1 8401    7
   42564.80 (4G)4p z5G 1 8402    9
   42589.20 (4G)4p z5G 1 8403   11
   42605.70 (4G)4p z5G 1 8404   13
   42648.30 a3P)sp x5D 1 8405    7
   42908.40 a3P)sp x5D 1 8406    9
   43124.80 a3P)sp z5S 1 8407    5
  -43344.80 d4s2 1F    1 4166    7
   44051.00 (6S)4d e5D 1 4259    9
   44068.90 (6S)4d e5D 1 4260    7
   44081.00 (6S)4d e5D 1 4261    5
   44089.00 (6S)4d e5D 1 4262    3
   44092.70 (6S)4d e5D 1 4263    1
   44125.70 (6S)5p w5P 1 8408    3
   44186.80 (6S)5p w5P 1 8409    5
  -44226.60 (2S)4s 1S  1 4165    1
   44246.60 (3H)sp z5I 1 8410    9
   44259.20 (6S)5p w5P 1 8411    7
   44299.90 a3F)sp y5G 1 8412    5
   44308.10 (3H)sp z5I 1 8413   11
   44373.30 a3F)sp y5G 1 8414    7
   44392.80 (3H)sp z5I 1 8415   13
   44514.30 (3H)sp z5I 1 8416   15
   44534.40 a3F)sp y5G 1 8417    9
   44591.40 a3F)sp y5G 1 8418   11
   44666.70 a3P)sp v5P 1 8420    3
   44746.30 a3F)sp y5G 1 8421   13
   44875.10 a3P)sp v5P 1 8422    5
   45113.10 a3P)sp v5P 1 8423    7
   45201.70 a3F)sp x5F 1 8424    3
   45225.10 a3F)sp x5F 1 8425    5
   45255.40 a3F)sp x5F 1 8426    7
   45286.00 a3F)sp x5F 1 8427    9
   45306.30 a3F)sp x5F 1 8428   11
   45348.70 (4G)4p z3H 1 8429   13
   45354.20 (4G)4p z3H 1 8430   11
   45358.60 (4G)4p z3H 1 8431    9
   45566.00 (4G)4p y5H 1 8432    7
   45614.90 (4G)4p y5H 1 8433    9
   45643.60 (6S)6s f7S 1 4264    7
   45663.20 (4G)4p y5H 1 8434   11
   45707.30 (4G)4p y5H 1 8435   13
   45719.20 (4P)4p y3P 1 8436    3
   45722.50 (4P)4p y3P 1 8437    1
   45734.30 (4P)4p y3P 1 8438    5
   45741.50 (4G)4p y5H 1 8439   15
  -45938.60 (2D)4s 3D  3 4164   15
   45966.40 (4G)4p y3F 1 8440    5
   45967.80 (6S)6s f5S 1 4265    5
   46000.40 (4G)4p y3F 1 8441    7
   46058.20 (4G)4p y3F 1 8442    9
   46077.00 (4P)4p y3D 1 8443    3
   46081.30 a3F)sp w5D 1 8444    1
   46109.20 (4P)4p y3D 1 8445    5
  -46172.70 d4s2 3F    2 4163   16
   46174.40 (4P)4p y3D 1 8446    7
  -46231.70 d6 3F      1 4162    5
   46298.20 a3F)sp w5D 1 8447    3
   46349.40 a3F)sp w5D 1 8448    5
   46368.30 a3F)sp w5D 1 8449    7
   46422.40 a3F)sp w5D 1 8450    9
   46448.60 4s5s f7D   1 4266    3
   46524.90 4s5s f7D   1 4267    5
   46637.20 4s5s f7D   1 4268    7
   46677.20 (3G)sp w5F 1 8451    5
   46678.40 (3G)sp w5F 1 8452    3
   46688.20 (3G)sp w5F 1 8453    7
   46704.90 (3G)sp w5F 1 8454   11
   46720.50 (3G)sp w5F 1 8455    9
   46783.10 4s5s f7D   1 4269    9
   46846.80 (3H)sp z3G 1 8456    7
   46878.60 (4P)4p u5P 1 8457    7
   46905.00 (3H)sp z3G 1 8458    9
   46959.00 4s5s f7D   1 4270   11
   46967.70 (4P)4p u5P 1 8459    5
   46985.90 (3H)sp z3G 1 8460   11
   47021.70 (4P)4p u5P 1 8461    3
   47047.50 (3H)sp x5G 1 8462    5
   47048.40 (4G)4p y3G 1 8463    7
   47054.90 (4G)4p y3G 1 8464    9
   47055.30 (4G)4p y3G 1 8465   11
   47088.40 a3P)sp z3S 1 8466    3
   47125.60 (3H)sp x5G 1 8467    7
   47189.90 (3H)sp x5G 1 8468    9
   47222.20 (3H)sp x5G 1 8469   13
   47228.20 (3H)sp x5G 1 8470   11
  -47416.90 d6 3P      9 4161   69
   47586.00 (3H)sp z3I 1 8471   11
   47621.40 (3G)sp x5H 1 8472    7
   47629.70 (6S)4f v5F 1 8473    3
   47630.40 (3H)sp z3I 1 8474   13
   47631.50 (6S)4f v5F 1 8475    5
   47636.10 (6S)4f v5F 1 8476    7
   47639.80 (6S)4f v5F 1 8477    9
   47644.90 (6S)4f v5F 1 8478   11
  -47648.80 (6S)4f 7F  7 8332   49
   47688.50 (3G)sp x5H 1 8479    9
   47692.60 (3H)sp z3I 1 8480   15
   47697.40 (6S)6p w7P 1 8481    5
   47700.30 (6S)5d g7D 1 4271    3
   47700.90 (6S)5d g7D 1 4272    5
   47702.40 (6S)5d g7D 1 4273    7
   47704.70 (6S)5d g7D 1 4274    9
   47708.40 (6S)6p w7P 1 8482    7
   47709.90 (6S)5d g7D 1 4275   11
   47718.70 (6S)6p w7P 1 8483    9
   47772.30 (4P)4p v5D 1 8484    3
   47786.10 (4P)4p v5D 1 8485    5
   47788.00 (4P)4p v5D 1 8486    1
   47793.70 (3G)sp x5H 1 8487   11
   47814.40 (4P)4p v5D 1 8488    7
   47866.50 (4P)4p v5D 1 8489    9
   47877.60 (4G)4p u5F 1 8490    3
   47917.90 (4G)4p u5F 1 8491    5
   47942.20 (3G)sp x5H 1 8492   13
   47974.60 (4G)4p u5F 1 8493    7
   47985.80 (4G)4p u5F 1 8494   11
   48014.40 (4G)4p u5F 1 8495    9
  -48123.20 (6S)6p 5P  2 8331   12
   48140.10 (3G)sp x5H 1 8496   15
  -48190.30 (2D)4s 1D  1 4160    5
   48210.00 a3F)sp 3D  1 8497    3
   48217.80 a3F)sp 3D  1 8498    5
   48226.40 a3P)sp x3P 1 8499    1
   48251.90 a3F)sp 3D  1 8500    7
   48288.40 (3H)sp y3H 1 8501    9
   48310.40 (3H)sp y3H 1 8502   11
   48331.20 a3P)sp x3P 1 8503    3
   48445.30 (3H)sp y3H 1 8504   13
   48458.60 a3P)sp x3P 1 8505    5
   48488.10 4s5s f5D   1 4276    1
   48507.40 4s5s f5D   1 4277    3
   48558.40 4s5s f5D   1 4278    5
   48562.20 x3G        1 8506    9
   48636.00 a3F)sp 3F  1 8507    7
   48661.50 4s5s f5D   1 4279    7
  -48700.30 (6S)5d 5D  5 4159   25
  -48714.20 (3F)sp 3F  2 8330   14
   48824.50 4s5s f5D   1 4280    9
   48839.80 a3P)sp x3D 1 8508    3
  -48850.30 (4D)4p 5P  2 8329    8
   49027.40 a3P)sp x3D 1 8509    5
  -49097.50 (6S)5g 7G  6 4158   48
  -49097.50 (6D)5g 7G  1 4157   15
  -49097.50 (6S)5g 5G  5 4156   45
   49177.80 (6S)7s g7S 1 4281    7
   49310.80 a3P)sp x3D 1 8510    7
   49321.80 (6S)7s g5S 1 4282    5
   49370.60 a3F)sp w3G 1 8511    7
   49453.90 a3F)sp w3G 1 8512    9
   49466.70 (3G)sp w5G 1 8513    5
   49477.00 (4P)4p y3S 1 8514    3
   49519.70 (3G)sp w5G 1 8515    7
   49538.00 a3F)sp w3G 1 8516   11
   49572.90 (3G)sp w5G 1 8517    9
   49586.40 d6 e3F     1 4283    5
   49588.80 (4D)4p t5P 1 8518    3
  -49589.20 a3F)sp 1D  1 8328    5
  -49592.00 (3P)sp 1P  2 8327    4
   49617.60 (3G)sp w5G 1 8519   11
   49620.60 (4D)4p x3F 1 8520    9
   49635.20 (3G)sp w5G 1 8521   13
   49650.10 (4D)4p x3F 1 8522    7
   49652.70 (4D)4p x3F 1 8523    5
   49717.90 d6 e3F     1 4284    7
  -49765.90 (6S)6d 7D  5 4155   35
   49812.40 (4D)4p t5P 1 8524    7
   49822.50 (4P)4p y5S 1 8525    5
   49863.50 d6 e3F     1 4285    9
   50018.80 (4D)4p s5F 1 8526    3
   50057.70 (4D)4p s5F 1 8527    5
  -50083.70 d4s2 3P    3 4154    9
   50102.30 (4D)4p s5F 1 8528    7
   50105.50 (4D)4p w3D 1 8529    3
  -50127.40 (6S)5f 7F  7 8326   49
  -50137.40 (6S)5f 5F  5 8325   35
   50184.00 (4D)4p w3D 1 8530    5
  -50184.00 (6S)7p 7P  2 8324   12
   50197.00 (6S)7p 7P  1 8531    9
  -50203.80 (3H)sp 1I  1 8323   13
   50210.60 (4D)4p s5F 1 8532    9
   50253.30 (4D)4p s5F 1 8533   11
   50264.50 (4D)4p w3D 1 8534    7
  -50329.40 (6S)6d 5D  5 4153   25
  -50398.80 (6S)7p 5P  3 8322   15
  -50439.20 (6S)6g 7G  6 4152   48
  -50439.20 (6D)6g 7G  1 4151   15
  -50439.20 (6S)6g 5G  5 4150   45
  -50509.00 d6 1G      1 4149    9
   50557.50 (4D)4p u5D 1 8535    9
   50628.10 (4D)4p u5D 1 8536    7
   50654.70 (4D)4p u5D 1 8537    5
   50661.20 (4D)4p u5D 1 8538    1
   50662.70 (4D)4p u5D 1 8539    3
   50890.10 (3G)sp w3F 1 8540    5
  -50917.70 (3G)sp 3H  3 8321   33
   50950.30 (3G)sp w3F 1 8541    7
  -50978.60 (6S)8s 7S  1 4148    7
   51035.40 (6S)8s h5S 1 4286    5
   51059.70 (3G)sp w3F 1 8542    9
  -51154.90 I(6S)7D    1 4147    5
  -51155.60 (6S)7d 7D  4 4146   30
   51176.80 (4D)4p w3P 1 8543    1
   51246.80 (4D)4p w3P 1 8544    3
  -51248.70 V(6S)7G    1 4145    5
  -51248.80 (6S)7g 7G  5 4144   43
  -51248.80 (6D)7g 7G  1 4143   15
  -51248.80 V(6S)5G    1 4142    5
  -51248.80 (6S)7g 5G  4 4141   40
  -51251.30 (6D)7i 7I 12 4140  156
   51286.50 (4D)4p w3P 1 8545    5
  -51351.40 (2P)sp 1D  1 8320    5
   51401.30 (3H)sp z1H 1 8546   11
  -51481.30 I(6S)5D    1 4139    5
  -51481.80 (6S)7d 5D  4 4138   20
  -51485.60 (6S)6f 7F  7 8319   49
  -51489.80 (6S)6f 5F  5 8318   35
  -51508.10 E(3D)3D    1 4137    5
  -51512.80 (3F)sp 1F  2 8317   16
  -51514.50 (2G)4s 3G  2 4136   18
  -51516.30 (6S)6h 7H 12 8316  132
  -51518.80 (2G)4d 3G  1 4135    9
  -51520.60 d6 3D      2 4134   10
   51529.40 (6S)8p 7P  1 8547    5
   51531.50 (6S)8p 7P  1 8548    7
   51534.40 (6S)8p 7P  1 8549    9
  -51631.00 (6S)8p 5P  3 8315   15
  -51667.20 (6S)9s 7S  1 4133    7
  -51691.40 C(6S)5S    1 4132    5
  -51774.10 W(6S)7G    1 4131    5
  -51774.20 (6S)8g 7G  5 4130   43
  -51774.20 (6D)8g 7G  1 4129   15
  -51774.20 W(6S)5G    1 4128    5
  -51774.20 (6S)8g 5G  4 4127   40
  -51776.50 (6D)8i 7I 12 4126  156
  -51980.50 J(6S)7D    1 4125    5
  -51981.00 (6S)8d 7D  3 4124   23
   51999.60 (3D)sp t5D 1 8550    1
   52012.40 (3D)sp t5D 1 8551    5
   52031.60 (3D)sp t5D 1 8552    7
   52064.20 (3D)sp t5D 1 8553    9
  -52086.80 (3D)sp 5D  1 8314    3
  -52134.60 X(6S)7G    1 4123    5
  -52134.70 (6S)9g 7G  5 4122   43
  -52134.70 (6D)9g 7G  1 4121   15
  -52134.70 X(6S)5G    1 4120    5
  -52134.70 (6S)9g 5G  4 4119   40
  -52136.40 (6D)9i 7I 24 4118  360
  -52200.00 (6S)8d 5D  4 4117   20
  -52200.10 J(6S)5D    1 4116    5
  -52306.00 (6S)7f 7F  7 8313   49
  -52307.50 (6S)7f 5F  5 8312   35
  -52325.30 (6S)7h 7H 12 8311  132
   52341.00 (6S)9p 7P  3 8554   21
  -52396.40 (6S)9p 5P  3 8310   15
  -52404.70 (6S)9d 7D  5 4115   37
  -52510.30 K(6S)7D    1 4114    5
  -52568.80 (5D)s5p 7F13 8309   83
   52591.70 (1I)sp y3I 1 8555   11
  -52600.40 (3G)sp 3G  3 8308   27
   52660.50 (1I)sp y3I 1 8556   13
   52677.70 (1I)sp y3I 1 8557   15
  -52688.30 s(5S)5p 7F 1 8307   11
  -52717.50 K(6S)5D    1 4113    5
  -52718.40 (6S)9d 5D  4 4112   20
  -52721.80 L(5D)5S    1 4111    5
  -52829.50 (3G)sp 1F  2 8306   18
  -52836.50 (6S)8f 7F  7 8305   49
  -52838.00 (6S)8f 5F  5 8304   35
  -52850.20 (6S)8h 7H 12 8303  132
  -52850.20 b(6S)7K   12 8302  180
   52885.20 a1G)sp x3H 1 8558   11
   52914.90 a1G)sp x3H 1 8559   13
   52963.40 a1G)sp x3H 1 8560    9
   53011.70 (3D)sp r5F 1 8561    3
   53037.50 (3D)sp r5F 1 8562    5
   53073.80 (3D)sp r5F 1 8563    7
  -53075.00 s5p 7D     1 8301   11
   53117.50 (3D)sp r5F 1 8564    9
   53148.40 4s4d e7G   1 4287    3
   53172.20 (3D)sp r5F 1 8565   11
   53177.90 4s4d e7G   1 4288    5
   53195.00 4s4d h7D   1 4289    5
  -53200.80 (6S)9f 7F  7 8300   49
  -53201.40 (6S)9f 5F  5 8299   35
  -53210.20 (6S)9h 7H 12 8298  132
  -53210.30 c(6S)7K   12 8297  180
   53215.50 4s4d e7F   1 4290    3
   53228.50 4s4d e7G   1 4291    7
   53279.60 4s4d e7F   1 4292    5
   53284.30 4s4d h7D   1 4293    7
   53298.80 4s4d e7G   1 4294    9
   53375.40 4s4d h7D   1 4295    9
   53384.70 4s4d e7F   1 4296    7
  -53392.90 (1G)sp 3F  3 8296   21
   53393.50 4s4d e7G   1 4297   11
  -53403.40 s(5D)4d 7F 1 4110    1
  -53505.90 (2F)4p 1D  1 8295    5
   53518.10 4s4d e7G   1 4298   13
   53526.00 4s4d e7F   1 4299    9
   53541.30 5D)s5p s5D 1 8566    5
   53627.80 4s4d h7D   1 4300   11
   53640.70 s5p s5D    1 8567    7
   53662.60 4s4d e7G   1 4301   15
   53706.10 4s4d e7F   1 4302   11
   53782.80 s5p s5D    1 8568    9
   53804.70 4F)s2p v3G 1 8569    7
  -53856.90 4s4d 5G   12 4109   84
   53927.40 4F)s2p v3G 1 8570    9
   53927.50 4s4d e7F   1 4303   13
   53962.80 s5p s5P    1 8571    3
  -53965.70 s(5D)4d 5D 1 4108    1
  -53979.70 d6 1S      2 4107   14
  -53989.30 (3P)sp 3P  1 8294    1
   54032.40 5D)s5p s5P 1 8572    5
   54078.00 4F)s2p v3G 1 8573   11
  -54092.10 4s4d 7P    5 4106   31
  -54129.00 (5D)s5p 5P 3 8293    9
   54132.70 s5p s5P    1 8574    7
  -54166.00 (2D)4p 3P  3 8292   13
   54198.10 s5p q5F    1 8575    3
  -54233.90 (3G)4s 1G  1 4105    9
   54252.20 5D)s5p q5F 1 8576    5
   54296.80 4s4d e5F   1 4304    3
   54316.80 (2I)4p z3K 1 8577   13
   54328.80 s5p q5F    1 8578    7
   54383.20 4s4d e5F   1 4305    5
   54404.90 (2I)4p z3K 1 8579   15
   54425.30 s5p q5F    1 8580    9
   54476.20 4s4d e5F   1 4306    7
   54498.30 (2I)4p z3K 1 8581   17
   54536.60 s5p q5F    1 8582   11
   54572.90 4s4d e5F   1 4307    9
 4116 8300 -5.665 -99914.   
 4116 8299 -1.091 -99851.   
 4117 8299 -1.105 -99714.   
 4156 8528 -1.241 -99499.   
 4158 8528 -4.149 -99497.   
 4156 8529 -3.475 -99181.   
 4268 8332 -2.075 -98826.   
 8299 4109 -1.703 -98778.   
 8484 4159 -2.307 -98573.   
 4154 8543 -3.895 -98435.   
 8307 4302 -2.499 -98226.   
 4145 8309  0.689 -97976.   
 8319 4114 -2.229 -97558.   
 8326 4147 -2.415 -97292.   
 4156 8325 -0.227 -97138.   
 4158 8326 -0.153 -97066.   
 4157 8326 -0.152 -97063.   
 4119 8565 -2.104 -96363.   
 4122 8565 -3.219 -96357.   
 8532 4141 -1.788 -96289.   
 4145 8313  1.196 -95722.   
 4150 8319 -1.717 -95534.   
 4152 8319  0.961 -95520.   
 4151 8319  0.962 -95512.   
 4150 8318  0.963 -95153.   
 4152 8318 -1.744 -95153.   
 4129 8305  1.530 -94809.   
 4144 8313  1.297 -94731.   
 4143 8313  1.318 -94691.   
 4142 8312  1.318 -94430.   
 4141 8312  1.317 -94426.   
 4109 8293 -2.566 -94294.   
 4128 8305 -1.481 -94037.   
 4131 8305  1.598 -94030.   
 4127 8304  1.598 -93977.   
 4130 8305  1.591 -93890.   
 4123 8300  1.834 -93777.   
 4122 8300  1.833 -93761.   
 4121 8300  1.833 -93743.   
 4120 8299  1.834 -93731.   
 4119 8299  1.833 -93727.   
 8311 4297 -4.932 -93596.   
 4126 8303  1.385 -93105.   
 4126 8302  1.181 -93104.   
 4118 8298  1.330 -93096.   
 4118 8297  1.582 -93087.   
 4140 8311  0.936 -93079.   
 4119 8298  1.870 -92957.   
 4120 8298  1.870 -92954.   
 4121 8298  1.870 -92953.   
 4122 8298  1.870 -92951.   
 4123 8298  1.870 -92945.   
 4127 8303  1.611 -92912.   
 4129 8303  1.611 -92909.   
 4128 8303  1.611 -92909.   
 4130 8303  1.611 -92907.   
 4131 8303  1.611 -92903.   
 4141 8311  1.284 -92868.   
 4143 8311  1.284 -92865.   
 4144 8311  1.284 -92864.   
 4150 8316  0.811 -92815.   
 4152 8316  0.812 -92812.   
 8322 4138 -0.594 -92472.   
 8322 4139 -1.214 -92323.   
 8495 4156 -1.596 -92299.   
 8315 4112 -0.903 -92134.   
 8315 4113 -1.568 -92022.   
 4156 8530 -2.366 -92013.   
 8313 4296 -3.213 -91587.   
 8315 4111 -1.752 -91575.   
 4144 8554 -1.330 -91529.   
 4145 8554 -0.672 -91528.   
 8309 4109 -2.867 -91410.   
 4170 8371 -5.378 -91199.   
 4163 8470 -3.856 -91190.   
 8305 4303 -2.726 -90983.   
 4141 8309 -2.740 -90847.   
 4144 8309 -0.039 -90843.   
 4154 8318 -1.044 -90533.   
 4129 8309  0.771 -90290.   
 4130 8309 -0.212 -90289.   
 8325 4142 -1.914 -90123.   
 8494 4156 -1.467 -89926.   
 4156 8532 -1.558 -89819.   
 4147 8309 -0.418 -89725.   
 4146 8309 -0.776 -89703.   
 8326 4143 -1.547 -89158.   
 8326 4144 -1.091 -89156.   
 8326 4145 -2.025 -89146.   
 8325 4141 -1.059 -89092.   
 8493 4156 -1.563 -89026.   
 8307 4106 -2.114 -88758.   
 8304 4108 -3.077 -88650.   
 4164 8462 -6.151 -88485.   
 4115 8567 -7.241 -88459.   
 8509 4154 -3.766 -88173.   
 8511 4149 -5.874 -87817.   
 8542 4117 -5.966 -87711.   
 4159 8522 -4.126 -87693.   
 8481 4159 -3.570 -87594.   
 8529 4142 -3.267 -87442.   
 4147 8313  0.518 -87226.   
 4146 8313  0.565 -87083.   
 4145 8310 -2.209 -87053.   
 4144 8310 -2.865 -87053.   
 4146 8312 -4.309 -86803.   
 4147 8312 -4.853 -86735.   
 4153 8319 -4.269 -86564.   
 4156 8533 -1.909 -86498.   
 8473 4159 -0.845 -86422.   
 4153 8318  0.672 -86259.   
 8524 4148 -6.912 -85729.   
 4156 8534 -5.208 -85670.   
 8475 4159 -0.885 -85498.   
 4133 8305 -4.734 -85400.   
 8491 4156 -1.407 -84752.   
 8299 4305 -3.567 -84593.   
 4146 8554 -0.802 -84404.   
 4147 8554 -0.516 -84287.   
 8331 4282 -0.462 -84076.   
 8527 4141 -2.113 -83935.   
 8527 4142 -2.812 -83935.   
 8311 4298 -4.872 -83816.   
 8510 4149 -5.920 -83436.   
 4266 8332 -2.113 -83300.   
 8476 4159 -0.940 -83130.   
 4153 8549 -5.252 -83068.   
 4132 8306 -5.670 -82774.   
 8313 4298 -3.838 -82351.   
 8534 4138 -4.400 -82202.   
 8472 4159 -3.932 -82124.   
 8312 4299 -5.067 -82049.   
 8329 4282 -0.850 -82007.   
 4124 8300  0.295 -81975.   
 4125 8300  0.296 -81930.   
 4164 8468 -6.377 -81686.   
 8318 4112 -1.255 -81465.   
 8318 4113 -1.980 -81432.   
 8526 4142 -2.242 -81281.   
 8489 4156 -1.861 -81209.   
 8318 4111 -2.450 -81146.   
 4159 8526 -2.416 -81123.   
 4111 8292 -2.619 -80692.   
 8307 4303 -2.588 -80675.   
 4111 8571 -1.868 -80555.   
 4146 8310 -3.966 -80460.   
 4113 8292 -2.480 -80412.   
 4154 8315 -1.576 -80324.   
 4113 8571 -2.061 -80275.   
 4159 8524 -1.433 -80156.   
 8541 4117 -6.062 -80031.   
 8541 4116 -6.109 -79992.   
 4136 8306 -3.723 -79894.   
 8534 4135 -4.687 -79705.   
 4159 8527 -1.998 -79536.   
 4159 8528 -1.100 -79120.   
 4161 8492 -5.415 -79040.   
 8298 4306 -6.889 -78968.   
 8322 4133 -4.734 -78863.   
 4112 8294 -4.402 -78708.   
 8532 4138 -4.453 -78703.   
 8560 4105 -4.538 -78684.   
 4159 8327 -4.829 -78659.   
 8299 4306 -3.326 -78419.   
 4160 8513 -5.734 -78324.   
 8488 4156 -1.729 -77913.   
 8534 4134 -2.766 -77778.   
 8307 4109 -3.000 -77689.   
 4144 8308 -5.073 -77671.   
 8322 4132 -2.131 -77386.   
 8324 4138 -3.886 -77161.   
 8530 4138 -3.590 -77015.   
 8324 4139 -4.771 -77007.   
 4153 8315  0.117 -76838.   
 4280 8325 -0.419 -76771.   
 4280 8326 -2.245 -76728.   
 8487 4156 -3.685 -76678.   
 4111 8572 -1.712 -76281.   
 8485 4156 -1.921 -76233.   
 4159 8525 -4.159 -76173.   
 4112 8572 -3.582 -76048.   
 4113 8572 -3.008 -76030.   
 4136 8304 -3.893 -75884.   
 4159 8529 -3.413 -75793.   
 4135 8304 -3.483 -75778.   
 8313 4300 -3.214 -75553.   
 8530 4137 -2.857 -75506.   
 8484 4158 -5.285 -75439.   
 8484 4156 -2.301 -75438.   
 8325 4139 -3.519 -75434.   
 4137 8304 -1.437 -75170.   
 8375 4168 -5.576 -74796.   
 8311 4301 -4.824 -74760.   
 4116 8566 -2.044 -74541.   
 4117 8566 -2.520 -74507.   
 4127 8564 -3.729 -74424.   
 4134 8304 -1.462 -74238.   
 8325 4134 -4.294 -74137.   
 4286 8309 -1.909 -74080.   
 8325 4137 -4.593 -73940.   
 8325 4138 -2.593 -73838.   
 4139 8304  0.012 -73687.   
 4138 8305 -2.726 -73670.   
 4138 8304  0.020 -73650.   
 4286 8310 -0.382 -73381.   
 4148 8554 -0.173 -73379.   
 8530 4134 -3.414 -73197.   
 8299 4307 -3.326 -72894.   
 8503 4154 -3.597 -72799.   
 8304 4109 -1.799 -72684.   
 8528 4138 -3.107 -72520.   
 8528 4139 -2.773 -72496.   
 8310 4109 -1.906 -72359.   
 4159 8530 -2.210 -72275.   
 8529 4134 -3.049 -72139.   
 4162 8472 -4.738 -71937.   
 4137 8306 -5.144 -71865.   
 8325 4135 -5.913 -71817.   
 4127 8565 -3.263 -71512.   
 4130 8565 -4.414 -71509.   
 8313 4302 -3.336 -71333.   
 4148 8309 -1.155 -71085.   
 8479 4156 -1.903 -70952.   
 4111 8574 -3.114 -70857.   
 4161 8489 -5.666 -70809.   
 4112 8574 -4.446 -70655.   
 4113 8574 -2.501 -70640.   
 4148 8310 -2.742 -70474.   
 4163 8476 -4.689 -70275.   
 8527 4139 -3.297 -70227.   
 8535 4124 -4.277 -70199.   
 8527 4138 -3.348 -70186.   
 4131 8300 -0.044 -70080.   
 4130 8300 -0.046 -70069.   
 4129 8300 -0.050 -70059.   
 4128 8299 -0.051 -70053.   
 4127 8299 -0.052 -70050.   
 4126 8298 -0.617 -69727.   
 4126 8297  1.530 -69722.   
 4127 8298  1.328 -69619.   
 4128 8298  1.328 -69618.   
 4130 8298  1.328 -69617.   
 4129 8298  1.328 -69617.   
 4131 8298  1.328 -69614.   
 4117 8567 -2.625 -69335.   
 8332 4157 -0.727 -69013.   
 8332 4158 -0.223 -69011.   
 8332 4156 -2.867 -69010.   
 8478 4158 -2.714 -68826.   
 8478 4156 -0.128 -68825.   
 8477 4158 -2.646 -68583.   
 8477 4156 -0.135 -68582.   
 4279 8325 -0.201 -68459.   
 8476 4158 -2.725 -68410.   
 8476 4156 -0.132 -68409.   
 8475 4156 -0.135 -68193.   
 8473 4156 -0.138 -68109.   
 8531 4133 -1.503 -67999.   
 8306 4105 -4.705 -67817.   
 8472 4156 -3.127 -67726.   
 4111 8575 -3.131 -67718.   
 8324 4133 -1.495 -67448.   
 4161 8487 -5.424 -67340.   
 8313 4109 -3.931 -67159.   
 8526 4137 -3.618 -67131.   
 8508 4153 -4.700 -67064.   
 4161 8511 -5.568 -66850.   
 4268 8331 -4.697 -66849.   
 8301 4307 -4.642 -66743.   
 4119 8567 -4.400 -66385.   
 8313 4106 -2.704 -66185.   
 8471 4156 -2.744 -66142.   
 4163 8478 -3.476 -66073.   
 8500 4155 -4.580 -66044.   
 8363 4170 -6.608 -66025.   
 8463 4159 -4.468 -65911.   
 8374 4168 -4.643 -65890.   
 4134 8561 -5.431 -65756.   
 8533 4127 -2.654 -65731.   
 4161 8540 -4.147 -65362.   
 4146 8307 -2.475 -65239.   
 4112 8576 -3.464 -65211.   
 4113 8576 -2.942 -65141.   
 8459 4159 -1.416 -64816.   
 8304 4305 -3.738 -64701.   
 4138 8562 -4.807 -64276.   
 4139 8562 -4.556 -64242.   
 4156 8537 -5.354 -64200.   
 4148 8308 -4.873 -64196.   
 8329 4146 -5.393 -64190.   
 8447 4161 -4.295 -64162.   
 4159 8325 -0.042 -64024.   
 4159 8326 -2.133 -63993.   
 4156 8539 -6.174 -63871.   
 4278 8326 -3.639 -63720.   
 4276 8327 -3.825 -63704.   
 8310 4108 -3.340 -63612.   
 4163 8485 -5.386 -63573.   
 4150 8551 -5.599 -63548.   
 4280 8322 -0.836 -63473.   
 8531 4127 -4.040 -63385.   
 4143 8305 -0.309 -63279.   
 8322 4124 -4.870 -63209.   
 4154 8545 -3.251 -63192.   
 4117 8568 -3.405 -63116.   
 4145 8305 -0.349 -62932.   
 4142 8304 -0.353 -62908.   
 4141 8304 -0.355 -62907.   
 4144 8305 -0.360 -62868.   
 4150 8552 -5.307 -62781.   
 4139 8563 -3.821 -62778.   
 4138 8563 -4.958 -62760.   
 4138 8301 -5.990 -62704.   
 4140 8302  1.455 -62523.   
 4140 8303 -1.175 -62523.   
 4141 8303  1.229 -62428.   
 4143 8303  1.230 -62427.   
 4142 8303  1.230 -62427.   
 4144 8303  1.229 -62426.   
 4145 8303  1.229 -62425.   
 4111 8578 -2.473 -62209.   
 4112 8578 -3.579 -62054.   
 4113 8578 -3.300 -62042.   
 8407 4161 -4.263 -61891.   
 4159 8324 -4.309 -61719.   
 4277 8326 -4.220 -61716.   
 4285 8318 -3.398 -61470.   
 4143 8309 -2.007 -61234.   
 4161 8478 -4.994 -61206.   
 8325 4128 -2.277 -61157.   
 4277 8325 -0.516 -61130.   
 8535 4117 -4.671 -60910.   
 8555 4105 -4.597 -60876.   
 8326 4130 -1.450 -60710.   
 8326 4129 -1.906 -60710.   
 8326 4131 -2.384 -60706.   
 8325 4127 -1.420 -60680.   
 4276 8325 -0.586 -60537.   
 8312 4108 -3.436 -60289.   
 8525 4138 -4.087 -60287.   
 8316 4288 -5.098 -60167.   
 8456 4159 -4.577 -60103.   
 8524 4138 -1.314 -59928.   
 4146 8305 -0.098 -59788.   
 4147 8305 -0.080 -59418.   
 4146 8304 -2.996 -59411.   
 8457 4159 -1.352 -59273.   
 4159 8531 -3.431 -59264.   
 4159 8533 -1.883 -59222.   
 4138 8565 -3.618 -59100.   
 4134 8296 -2.978 -59045.   
 4137 8299 -1.828 -59041.   
 8524 4137 -4.127 -58959.   
 4159 8534 -3.333 -58833.   
 4159 8532 -1.571 -58791.   
 4134 8299 -1.890 -58464.   
 8316 4291 -4.980 -58390.   
 8466 4159 -3.395 -58382.   
 8527 4127 -2.448 -58243.   
 8527 4128 -3.147 -58243.   
 4155 8319 -0.291 -58185.   
 4139 8299 -0.628 -58122.   
 4138 8299 -0.619 -58098.   
 4155 8318 -4.631 -58012.   
 8318 4290 -4.729 -57929.   
 8525 4134 -3.989 -57879.   
 8319 4290 -3.949 -57782.   
 8331 4285 -3.230 -57762.   
 4136 8296 -3.199 -57637.   
 4279 8322 -0.709 -57557.   
 8319 4291 -4.912 -57359.   
 8330 4153 -5.124 -57181.   
 8526 4128 -2.573 -56952.   
 4117 8292 -2.257 -56799.   
 4116 8292 -2.008 -56783.   
 4117 8571 -1.628 -56731.   
 4116 8571 -1.256 -56715.   
 4155 8547 -5.914 -56661.   
 4155 8548 -5.657 -56644.   
 4283 8320 -5.353 -56642.   
 4155 8549 -5.439 -56588.   
 4127 8566 -5.447 -56575.   
 8316 4293 -6.376 -56546.   
 4285 8315 -4.077 -56530.   
 8532 4124 -2.891 -56448.   
 4284 8318 -3.723 -56420.   
 8461 4159 -1.477 -56194.   
 8531 4124 -0.985 -56019.   
 4117 8294 -4.597 -55892.   
 4141 8562 -5.918 -55892.   
 8455 4159 -4.408 -55862.   
 8318 4292 -4.594 -55856.   
 8493 4155 -5.172 -55788.   
 8319 4292 -3.864 -55721.   
 8324 4124 -1.323 -55660.   
 8324 4125 -1.560 -55620.   
 8319 4293 -3.895 -55582.   
 8322 4117 -0.660 -55563.   
 8322 4116 -1.272 -55488.   
 8318 4294 -6.141 -55265.   
 8319 4294 -4.713 -55140.   
 4112 8582 -2.993 -54945.   
 4164 8485 -6.214 -54928.   
 4159 8539 -3.281 -54809.   
 4120 8292 -3.903 -54749.   
 4144 8301 -3.992 -54743.   
 4152 8309 -1.817 -54631.   
 4117 8572 -1.731 -54545.   
 4159 8322 -0.886 -54501.   
 8523 4134 -2.934 -54374.   
 4278 8322 -1.572 -54332.   
 4132 8566 -3.101 -54042.   
 4161 8542 -3.730 -53961.   
 8326 4125 -3.160 -53948.   
 8326 4115 -2.650 -53941.   
 8326 4124 -2.500 -53919.   
 8522 4137 -3.007 -53809.   
 4150 8313 -3.314 -53633.   
 4152 8313 -0.719 -53607.   
 4151 8313 -0.704 -53594.   
 4152 8312 -3.376 -53508.   
 4150 8312 -0.735 -53508.   
 8505 4153 -2.607 -53419.   
 8411 4163 -3.446 -53384.   
 8453 4159 -4.350 -53263.   
 8316 4297 -4.793 -53258.   
 4137 8296 -2.883 -53233.   
 8524 4132 -2.514 -53206.   
 8329 4138 -1.268 -53093.   
 8329 4139 -1.530 -53080.   
 4150 8311  1.143 -53005.   
 4151 8311  1.144 -53004.   
 4152 8311  1.143 -53003.   
 8518 4139 -1.555 -52827.   
 8518 4138 -1.303 -52804.   
 8319 4296 -3.769 -52641.   
 4152 8554 -3.607 -52566.   
 8328 4134 -4.112 -52557.   
 8518 4134 -2.495 -52548.   
 8310 4304 -4.391 -52542.   
 8312 4109 -2.156 -52454.   
 8468 4156 -4.849 -52407.   
 8319 4297 -5.058 -52406.   
 4276 8322 -2.123 -52334.   
 8318 4110 -4.951 -52241.   
 4146 8301 -4.132 -52092.   
 8518 4137 -3.123 -52090.   
 4154 8312 -2.570 -52014.   
 4141 8565 -4.470 -51977.   
 8532 4119 -2.362 -51956.   
 8520 4134 -2.813 -51819.   
 4117 8574 -3.229 -51695.   
 8534 4117 -4.501 -51683.   
 8517 4136 -4.865 -51652.   
 8531 4119 -4.241 -51592.   
 8317 4105 -3.565 -51477.   
 8533 4117 -4.226 -51386.   
 8517 4135 -3.590 -51379.   
 4145 8300 -1.221 -51217.   
 4144 8300 -1.223 -51211.   
 4143 8300 -1.227 -51205.   
 4142 8299 -1.226 -51202.   
 4141 8299 -1.228 -51200.   
 4140 8297  0.307 -51031.   
 4141 8298  0.411 -50970.   
 4144 8298  0.411 -50969.   
 4143 8298  0.412 -50969.   
 8516 4136 -3.492 -50735.   
 8467 4156 -5.110 -50699.   
 4153 8312 -0.830 -50576.   
 8470 4161 -2.856 -50521.   
 4136 8295 -3.867 -50356.   
 4164 8491 -5.105 -50347.   
 8515 4137 -3.158 -50279.   
 8310 4305 -3.838 -50262.   
 4159 8535 -2.696 -50180.   
 8325 4120 -2.542 -50106.   
 4117 8575 -2.726 -50049.   
 4116 8575 -2.454 -50037.   
 4119 8574 -3.363 -50037.   
 4163 8331 -3.794 -49965.   
 8326 4122 -1.730 -49806.   
 8326 4121 -2.186 -49806.   
 8326 4123 -2.664 -49804.   
 8325 4119 -1.694 -49786.   
 4154 8310 -2.180 -49771.   
 8513 4138 -4.482 -49604.   
 8530 4116 -4.680 -49587.   
 4146 8565 -5.304 -49581.   
 8530 4117 -4.095 -49575.   
 8324 4116 -4.751 -49563.   
 4162 8500 -5.643 -49485.   
 8314 4109 -3.873 -49445.   
 8550 4109 -3.745 -49406.   
 4138 8295 -4.647 -49399.   
 8513 4134 -3.461 -49378.   
 8409 4163 -4.081 -49326.   
 8568 4106 -3.978 -49288.   
 8514 4137 -3.590 -49222.   
 8528 4119 -1.972 -49188.   
 8546 4107 -2.823 -49108.   
 8435 4161 -3.186 -49100.   
 4149 8308 -3.804 -49095.   
 8319 4299 -3.652 -49001.   
 4146 8300 -0.011 -48895.   
 4147 8300 -0.011 -48867.   
 8483 4155 -0.179 -48790.   
 4153 8309 -2.015 -48650.   
 8482 4155 -0.177 -48573.   
 8329 4154 -3.050 -48566.   
 4120 8575 -2.440 -48451.   
 4153 8310 -0.468 -48368.   
 8481 4155 -0.174 -48352.   
 8527 4119 -2.828 -48133.   
 8500 4153 -1.988 -48088.   
 4149 8555 -3.438 -48002.   
 8315 4106 -4.104 -47956.   
 8468 4161 -3.145 -47870.   
 8329 4132 -2.570 -47753.   
 8512 4134 -3.620 -47698.   
 8528 4117 -3.587 -47669.   
 8528 4116 -3.254 -47655.   
 8518 4132 -2.597 -47548.   
 8498 4153 -2.013 -47331.   
 8526 4120 -2.983 -47249.   
 4119 8576 -3.277 -47214.   
 4120 8576 -3.073 -47213.   
 4159 8536 -2.656 -47203.   
 8332 4155 -1.743 -47183.   
 4117 8578 -3.306 -46935.   
 4137 8567 -4.239 -46878.   
 8511 4137 -5.276 -46772.   
 8457 4161 -3.715 -46750.   
 8319 4300 -3.277 -46675.   
 8527 4117 -3.709 -46653.   
 4159 8537 -2.716 -46616.   
 8316 4301 -4.653 -46580.   
 8465 4161 -2.382 -46462.   
 8434 4161 -2.917 -46412.   
 4139 8567 -3.115 -46297.   
 4138 8567 -3.345 -46287.   
 4111 8293 -1.460 -46203.   
 4265 8331  0.057 -46178.   
 4112 8293 -2.630 -46117.   
 8312 4306 -3.823 -46098.   
 8310 4307 -3.650 -45963.   
 8500 4150 -3.632 -45707.   
 8315 4109 -2.531 -45580.   
 4119 8578 -3.738 -45565.   
 8449 4159 -3.773 -45506.   
 8331 4153 -1.155 -45480.   
 8510 4135 -3.889 -45279.   
 8510 4136 -4.582 -45242.   
 8314 4304 -3.953 -45235.   
 8547 4109 -4.092 -45164.   
 8514 4132 -4.569 -45146.   
 8319 4302 -3.301 -45030.   
 8460 4161 -1.933 -45009.   
 8464 4161 -2.121 -44964.   
 8459 4161 -2.656 -44880.   
 8329 4153 -1.397 -44831.   
 8467 4161 -3.057 -44732.   
 8510 4134 -2.940 -44651.   
 8534 4115 -3.621 -44504.   
 4152 8307 -2.673 -44450.   
 4149 8306 -2.971 -44418.   
 8549 4109 -4.101 -44260.   
 8433 4161 -2.794 -44230.   
 8312 4307 -3.846 -44132.   
 4132 8292 -2.926 -44054.   
 4132 8571 -2.331 -44013.   
 8461 4161 -2.626 -43817.   
 4119 8580 -3.167 -43646.   
 8532 4115 -2.927 -43455.   
 8399 4161 -3.930 -43441.   
 4138 8568 -3.106 -43426.   
 8319 4109 -4.062 -43330.   
 4282 8315 -1.061 -43275.   
 8463 4161 -1.991 -43238.   
 8531 4115 -0.996 -43200.   
 8322 4112 -1.557 -43138.   
 8322 4113 -2.020 -43110.   
 8322 4111 -1.817 -43050.   
 8324 4115 -0.965 -42984.   
 8324 4114 -1.612 -42957.   
 8319 4106 -2.848 -42928.   
 8315 4108 -4.587 -42803.   
 4117 8582 -3.728 -42764.   
 4132 8572 -2.574 -42706.   
 8321 4107 -3.983 -42635.   
 8494 4153 -3.374 -42631.   
 4139 8292 -3.143 -42631.   
 4124 8578 -6.133 -42584.   
 8466 4161 -2.442 -42573.   
 4127 8574 -4.020 -42389.   
 8327 4134 -3.709 -42277.   
 8458 4161 -2.026 -42124.   
 4134 8570 -3.763 -42047.   
 8326 4114 -3.672 -41952.   
 8524 4117 -1.122 -41893.   
 4158 8319 -1.858 -41860.   
 4157 8319 -1.858 -41858.   
 4151 8305 -1.515 -41839.   
 4156 8318 -1.882 -41789.   
 8429 4161 -2.098 -41747.   
 4150 8304 -1.604 -41676.   
 4152 8305 -1.610 -41659.   
 4119 8582 -3.175 -41624.   
 4150 8303  0.284 -41465.   
 4152 8303  0.284 -41464.   
 4151 8303  0.284 -41464.   
 4158 8316  0.480 -41331.   
 4157 8316  0.481 -41331.   
 4156 8316  0.480 -41331.   
 4274 8326 -0.218 -41264.   
 4273 8326 -0.211 -41226.   
 4272 8326 -0.211 -41201.   
 4271 8326 -0.210 -41192.   
 4153 8306 -6.171 -41160.   
 4163 8506 -4.713 -41137.   
 4159 8541 -4.692 -40968.   
 4285 8312 -3.696 -40904.   
 8397 4161 -4.249 -40851.   
 4159 8545 -4.266 -40842.   
 8448 4159 -4.108 -40783.   
 4154 8304 -2.907 -40763.   
 8494 4150 -2.034 -40748.   
 8490 4153 -3.050 -40720.   
 8316 4109 -4.292 -40660.   
 8430 4161 -2.127 -40589.   
 8533 4112 -3.199 -40577.   
 8489 4153 -3.344 -40566.   
 8493 4150 -2.141 -40563.   
 4134 8571 -3.596 -40450.   
 8318 4108 -3.405 -40377.   
 4127 8576 -3.961 -40345.   
 4138 8292 -3.193 -40334.   
 4138 8571 -2.758 -40300.   
 4139 8571 -2.235 -40286.   
 4271 8324 -2.655 -40267.   
 4264 8331 -3.037 -40163.   
 4159 8542 -4.369 -40077.   
 4153 8304 -1.162 -39875.   
 8456 4161 -2.119 -39769.   
 8488 4153 -3.115 -39727.   
 8431 4161 -2.142 -39726.   
 8491 4150 -2.012 -39652.   
 8509 4134 -3.423 -39634.   
 8544 4109 -2.745 -39485.   
 8324 4112 -4.768 -39483.   
 8530 4113 -4.098 -39461.   
 4285 8310 -4.190 -39448.   
 4155 8313 -0.787 -39408.   
 8485 4153 -3.129 -39298.   
 4139 8572 -2.590 -39188.   
 4138 8572 -2.662 -39181.   
 4127 8578 -4.391 -39134.   
 8484 4153 -3.342 -39079.   
 4135 8573 -4.483 -39064.   
 8490 4150 -1.923 -39028.   
 8543 4109 -2.348 -38959.   
 4136 8573 -3.463 -38907.   
 8489 4150 -2.445 -38858.   
 4155 8554 -2.674 -38850.   
 8325 4111 -5.536 -38765.   
 4134 8574 -4.980 -38706.   
 4155 8309 -1.981 -38685.   
 4284 8312 -4.112 -38604.   
 8325 4112 -3.171 -38594.   
 4164 8506 -5.128 -38509.   
 8329 4117 -1.099 -38427.   
 8329 4116 -1.369 -38418.   
 4162 8508 -3.203 -38331.   
 8518 4116 -1.347 -38285.   
 8518 4117 -1.076 -38278.   
 8529 4112 -3.661 -38245.   
 8528 4113 -3.130 -38228.   
 8528 4112 -3.289 -38223.   
 8466 4154 -2.617 -38214.   
 8528 4111 -3.544 -38165.   
 8488 4150 -2.369 -38088.   
 4155 8310 -4.698 -37975.   
 8481 4153 -4.542 -37974.   
 4150 8563 -5.443 -37947.   
 4152 8301 -4.535 -37928.   
 8479 4153 -3.877 -37846.   
 8508 4138 -4.069 -37835.   
 8487 4150 -4.355 -37790.   
 4127 8580 -3.797 -37711.   
 4139 8574 -3.481 -37705.   
 4138 8574 -3.930 -37696.   
 8485 4150 -2.589 -37682.   
 8527 4112 -3.164 -37564.   
 8330 4136 -3.731 -37558.   
 4280 8318 -1.369 -37508.   
 8484 4150 -2.991 -37486.   
 4153 8561 -4.367 -37317.   
 8515 4117 -4.048 -37316.   
 4116 8293 -0.672 -37228.   
 8478 4153 -2.128 -37221.   
 4117 8293 -1.004 -37219.   
 8477 4153 -2.145 -37161.   
 4149 8299 -3.594 -37132.   
 8476 4153 -2.146 -37104.   
 8526 4112 -3.065 -37023.   
 8475 4153 -2.154 -37010.   
 8473 4153 -2.199 -36985.   
 4153 8562 -4.054 -36962.   
 8443 4159 -4.554 -36898.   
 4163 8330 -4.472 -36825.   
 4138 8575 -3.685 -36809.   
 4139 8575 -3.758 -36798.   
 8544 4108 -3.627 -36770.   
 8444 4159 -3.668 -36761.   
 8318 4109 -2.094 -36706.   
 4150 8565 -4.878 -36580.   
 8459 4154 -4.408 -36529.   
 4153 8563 -3.826 -36443.   
 4137 8576 -4.168 -36432.   
 4153 8301 -4.893 -36432.   
 8471 4153 -4.697 -36422.   
 8479 4150 -2.664 -36344.   
 8315 4305 -4.681 -36313.   
 4152 8300 -2.100 -36199.   
 4151 8300 -2.109 -36196.   
 4150 8299 -2.108 -36193.   
 4151 8298 -0.215 -36078.   
 4150 8298 -0.215 -36078.   
 4152 8298 -0.215 -36077.   
 8438 4159 -3.935 -36015.   
 4134 8578 -4.509 -35974.   
 8332 4151 -1.499 -35829.   
 8332 4152 -0.995 -35828.   
 8478 4150 -0.906 -35778.   
 8477 4150 -0.916 -35712.   
 8476 4150 -0.913 -35665.   
 4280 8315 -0.989 -35609.   
 8475 4150 -0.918 -35606.   
 8473 4150 -0.921 -35584.   
 4163 8509 -3.756 -35529.   
 4154 8299 -1.878 -35504.   
 4279 8318 -0.907 -35347.   
 8546 4105 -2.783 -35293.   
 4153 8565 -3.263 -35185.   
 8539 4106 -3.749 -35147.   
 8315 4306 -4.466 -35138.   
 4138 8578 -3.593 -35100.   
 8537 4106 -3.459 -35048.   
 8471 4150 -3.503 -35039.   
 4165 8466 -4.036 -34934.   
 8478 4149 -5.703 -34906.   
 4153 8299 -0.198 -34828.   
 8507 4135 -3.669 -34680.   
 4161 8473 -3.173 -34598.   
 4161 8475 -2.355 -34576.   
 4161 8476 -2.011 -34521.   
 8331 4286 -1.333 -34441.   
 8524 4113 -2.292 -34414.   
 8524 4111 -1.911 -34362.   
 8449 4161 -3.177 -34354.   
 4159 8318 -0.600 -34183.   
 4278 8318 -0.843 -34104.   
 8329 4286 -1.709 -34089.   
 4138 8580 -3.493 -33951.   
 8506 4136 -3.787 -33931.   
 4142 8575 -3.718 -33897.   
 8506 4135 -4.669 -33813.   
 4279 8315 -0.777 -33666.   
 4277 8318 -1.016 -33522.   
 8536 4106 -3.447 -33518.   
 8322 4296 -4.589 -33477.   
 8318 4306 -3.705 -33476.   
 4276 8318 -1.113 -33306.   
 4141 8576 -4.518 -33287.   
 8448 4161 -3.911 -33201.   
 8505 4138 -2.607 -33079.   
 8331 4146 -4.452 -33075.   
 8505 4139 -2.937 -33074.   
 4161 8484 -4.898 -32971.   
 8505 4137 -2.822 -32784.   
 4138 8582 -3.350 -32714.   
 4155 8305 -1.277 -32661.   
 8309 4106 -1.124 -32658.   
 8504 4136 -3.318 -32637.   
 4159 8315 -0.832 -32599.   
 4278 8315 -1.446 -32536.   
 8539 4109 -1.571 -32456.   
 8538 4109 -1.544 -32440.   
 8318 4307 -3.715 -32427.   
 8505 4134 -2.690 -32341.   
 8446 4161 -3.489 -32208.   
 4164 8509 -4.235 -32148.   
 8329 4113 -2.498 -32047.   
 4277 8315 -1.802 -32015.   
 8329 4111 -1.818 -32002.   
 8518 4113 -1.923 -31954.   
 8518 4112 -3.073 -31937.   
 8518 4111 -1.650 -31910.   
 4161 8490 -4.600 -31864.   
 4162 8511 -4.618 -31849.   
 8461 4154 -4.349 -31843.   
 4276 8315 -2.033 -31818.   
 8325 4294 -5.042 -31810.   
 8442 4161 -2.605 -31749.   
 4270 8326 -2.063 -31553.   
 4158 8309 -3.819 -31521.   
 4141 8580 -4.310 -31473.   
 8503 4137 -2.619 -31469.   
 4161 8491 -3.948 -31460.   
 4163 8510 -3.842 -31448.   
 4132 8293 -1.876 -31299.   
 4137 8292 -2.686 -31213.   
 4158 8313 -2.741 -31177.   
 4157 8313 -2.726 -31173.   
 4281 8309 -2.145 -31172.   
 4156 8312 -2.753 -31144.   
 4153 8566 -3.202 -31132.   
 4134 8292 -3.466 -31051.   
 4281 8310 -3.736 -31048.   
 4158 8311 -0.518 -30972.   
 4157 8311 -0.518 -30972.   
 4156 8311 -0.519 -30972.   
 8501 4136 -3.430 -30930.   
 8323 4107 -2.526 -30920.   
 4161 8493 -3.836 -30909.   
 8495 4141 -2.902 -30909.   
 8326 4295 -5.262 -30780.   
 8445 4161 -3.378 -30748.   
 8428 4159 -2.889 -30677.   
 8483 4148 -1.718 -30667.   
 8494 4141 -2.818 -30638.   
 8498 4138 -1.912 -30638.   
 8498 4139 -2.139 -30634.   
 8499 4134 -2.471 -30620.   
 8482 4148 -1.717 -30571.   
 8497 4139 -2.957 -30561.   
 8497 4138 -2.484 -30553.   
 8493 4141 -2.908 -30533.   
 8441 4161 -2.598 -30499.   
 8481 4148 -1.716 -30469.   
 4141 8582 -4.271 -30408.   
 8540 4109 -3.796 -30361.   
 8500 4134 -3.360 -30314.   
 8497 4137 -3.084 -30313.   
 8539 4108 -2.336 -30267.   
 4155 8301 -3.888 -30228.   
 4153 8567 -2.851 -30197.   
 8461 4153 -3.056 -30194.   
 8322 4106 -3.814 -30138.   
 8491 4141 -2.805 -30014.   
 8491 4142 -3.504 -30014.   
 8386 4161 -3.125 -30012.   
 8498 4134 -3.217 -30004.   
 8449 4154 -3.664 -29966.   
 4285 8299 -3.157 -29951.   
 8331 4138 -0.952 -29861.   
 4161 8321 -2.965 -29854.   
 8530 4109 -3.138 -29820.   
 4163 8517 -4.650 -29759.   
 8459 4153 -3.176 -29733.   
 4161 8329 -3.540 -29730.   
 8331 4139 -1.733 -29686.   
 4137 8293 -3.024 -29600.   
 8331 4134 -3.007 -29598.   
 4164 8510 -4.090 -29590.   
 4285 8296 -3.134 -29582.   
 8489 4141 -3.271 -29557.   
 8329 4134 -2.629 -29503.   
 8440 4161 -2.578 -29454.   
 4139 8293 -1.571 -29367.   
 4138 8293 -1.891 -29363.   
 8310 4106 -2.283 -29284.   
 4162 8523 -3.671 -29223.   
 4155 8300 -0.519 -29117.   
 8483 4146 -1.015 -29080.   
 8482 4147 -1.859 -29007.   
 8482 4146 -1.080 -28999.   
 4153 8568 -2.560 -28962.   
 8423 4159 -2.191 -28960.   
 8481 4146 -1.234 -28917.   
 8481 4147 -1.410 -28915.   
 8485 4141 -3.283 -28871.   
 4161 8497 -4.564 -28811.   
 8554 4106 -1.391 -28810.   
 8527 4109 -2.161 -28737.   
 8536 4109 -1.574 -28723.   
 4280 8312 -3.414 -28702.   
 4163 8520 -3.780 -28656.   
 4268 8326 -2.554 -28644.   
 8325 4109 -2.706 -28609.   
 4153 8292 -3.106 -28594.   
 8332 4147 -3.404 -28514.   
 8332 4146 -2.626 -28501.   
 4159 8552 -4.672 -28389.   
 8494 4136 -4.255 -28380.   
 8537 4109 -1.510 -28336.   
 4159 8309 -2.532 -28191.   
 4280 8310 -1.140 -27977.   
 8532 4109 -2.064 -27905.   
 8332 4145 -2.442 -27771.   
 8332 4144 -1.509 -27771.   
 8332 4143 -1.965 -27771.   
 8478 4141 -1.361 -27740.   
 8477 4141 -1.370 -27701.   
 8476 4141 -1.370 -27673.   
 8475 4141 -1.449 -27637.   
 8475 4142 -2.148 -27637.   
 8473 4142 -1.373 -27623.   
 8535 4109 -1.686 -27576.   
 4279 8312 -2.200 -27420.   
 4164 8520 -3.641 -27356.   
 4153 8294 -3.899 -27341.   
 4170 8373 -4.066 -27322.   
 8471 4141 -4.004 -27294.   
 8488 4138 -3.371 -27268.   
 4284 8296 -3.086 -27254.   
 4266 8326 -2.783 -27176.   
 4164 8522 -3.860 -27136.   
 8326 4106 -4.327 -27114.   
 8380 4161 -2.471 -27043.   
 4153 8572 -3.453 -27006.   
 4161 8505 -3.757 -26885.   
 8533 4109 -1.996 -26861.   
 4279 8309 -2.220 -26849.   
 4279 8310 -0.940 -26762.   
 4156 8304 -3.260 -26727.   
 8505 4117 -2.371 -26724.   
 4159 8312 -1.472 -26714.   
 4158 8303 -1.075 -26640.   
 4157 8303 -1.075 -26640.   
 4156 8303 -1.075 -26640.   
 8379 4161 -1.411 -26607.   
 4159 8554 -3.822 -26477.   
 4275 8319 -1.301 -26476.   
 4274 8319 -1.302 -26440.   
 4273 8319 -1.305 -26425.   
 4272 8319 -1.307 -26416.   
 4271 8319 -1.308 -26412.   
 4170 8374 -4.641 -26359.   
 8493 4127 -3.258 -26311.   
 4277 8312 -1.691 -26308.   
 4153 8574 -3.062 -26293.   
 8377 4161 -1.360 -26241.   
 8322 4109 -1.973 -26212.   
 4159 8310 -0.972 -26085.   
 4278 8310 -1.620 -26043.   
 4163 8527 -3.345 -26006.   
 8476 4139 -3.030 -26000.   
 4286 8293 -1.088 -25966.   
 4167 8440 -4.283 -25927.   
 8491 4127 -3.152 -25925.   
 8491 4128 -3.852 -25925.   
 4164 8525 -4.976 -25923.   
 8475 4134 -4.060 -25901.   
 8328 4109 -3.918 -25875.   
 8503 4117 -3.388 -25837.   
 4162 8529 -2.325 -25807.   
 4153 8575 -3.345 -25797.   
 4277 8309 -3.533 -25782.   
 4161 8327 -4.760 -25778.   
 8522 4109 -3.113 -25723.   
 4277 8310 -1.995 -25722.   
 8490 4128 -2.949 -25656.   
 8524 4106 -2.977 -25606.   
 4276 8310 -2.254 -25595.   
 8489 4127 -3.627 -25583.   
 8450 4153 -4.436 -25579.   
 8329 4106 -3.225 -25573.   
 4153 8576 -3.082 -25507.   
 4283 8295 -3.381 -25506.   
 8427 4161 -5.090 -25496.   
 8471 4136 -5.242 -25487.   
 8497 4120 -3.720 -25473.   
 4274 8315 -4.961 -25456.   
 4163 8325 -4.439 -25443.   
 4273 8315 -4.801 -25441.   
 4272 8315 -4.748 -25437.   
 8500 4117 -1.540 -25330.   
 8500 4116 -3.039 -25321.   
 8483 4133 -2.043 -25319.   
 4162 8530 -2.890 -25294.   
 8482 4133 -2.043 -25253.   
 8422 4159 -1.808 -25223.   
 8481 4133 -2.042 -25183.   
 8438 4154 -3.119 -25181.   
 4163 8530 -2.580 -25179.   
 8498 4117 -1.769 -25108.   
 8498 4116 -2.048 -25104.   
 8436 4154 -3.270 -25085.   
 8513 4109 -2.882 -25080.   
 8485 4127 -3.621 -25068.   
 8497 4116 -2.699 -25055.   
 8497 4117 -2.430 -25052.   
 4153 8578 -3.032 -25001.   
 8484 4128 -3.902 -24981.   
 8525 4109 -2.341 -24976.   
 4263 8329 -1.215 -24930.   
 4280 8304 -2.598 -24909.   
 8518 4106 -3.339 -24857.   
 4262 8331 -1.928 -24840.   
 4261 8331 -1.456 -24791.   
 4162 8534 -4.264 -24790.   
 4161 8296 -2.957 -24771.   
 4260 8331 -1.214 -24717.   
 8445 4154 -3.618 -24672.   
 4163 8324 -4.936 -24666.   
 4159 8306 -5.246 -24621.   
 8331 4117 -0.838 -24587.   
 8517 4109 -3.220 -24518.   
 4259 8331 -1.218 -24493.   
 8479 4127 -3.464 -24469.   
 8331 4116 -1.600 -24464.   
 4153 8580 -2.644 -24412.   
 4158 8300 -3.620 -24363.   
 4157 8300 -3.626 -24362.   
 4156 8299 -3.619 -24361.   
 4158 8298 -1.454 -24308.   
 4157 8298 -1.454 -24308.   
 4156 8298 -1.454 -24308.   
 8332 4131 -2.773 -24234.   
 8332 4130 -1.839 -24234.   
 8332 4129 -2.295 -24234.   
 8478 4127 -1.691 -24211.   
 4163 8534 -2.263 -24191.   
 8420 4159 -1.372 -24183.   
 8477 4127 -1.699 -24181.   
 8476 4127 -1.699 -24159.   
 8475 4127 -1.778 -24132.   
 8475 4128 -2.477 -24132.   
 8473 4128 -1.702 -24122.   
 4161 8295 -3.585 -24117.   
 8494 4119 -2.916 -24096.   
 8493 4119 -3.045 -24031.   
 8511 4109 -3.181 -23997.   
 8322 4307 -4.026 -23955.   
 8519 4109 -2.901 -23942.   
 4279 8304 -1.966 -23937.   
 8495 4117 -4.237 -23892.   
 8471 4127 -4.335 -23870.   
 8518 4109 -1.273 -23860.   
 8512 4109 -2.944 -23822.   
 4153 8582 -2.492 -23771.   
 8371 4168 -4.511 -23725.   
 8491 4119 -3.011 -23708.   
 4159 8561 -2.874 -23661.   
 8329 4109 -1.369 -23648.   
 4159 8563 -2.388 -23606.   
 4159 8562 -2.579 -23597.   
 8325 4305 -3.516 -23577.   
 4280 8301 -2.722 -23520.   
 4164 8530 -3.928 -23513.   
 8516 4109 -3.341 -23494.   
 8490 4120 -2.859 -23484.   
 8505 4113 -3.376 -23474.   
 8483 4124 -1.486 -23452.   
 8482 4125 -2.312 -23401.   
 8482 4124 -1.783 -23398.   
 4159 8304 -1.492 -23397.   
 8549 4106 -2.735 -23376.   
 4278 8304 -1.664 -23360.   
 8548 4106 -2.537 -23360.   
 8547 4106 -2.586 -23349.   
 8481 4124 -1.909 -23342.   
 8481 4125 -1.863 -23341.   
 4164 8534 -3.711 -23258.   
 8411 4159 -0.634 -23217.   
 8443 4154 -3.850 -23204.   
 8409 4159 -0.770 -23124.   
 4277 8304 -1.820 -23085.   
 8332 4125 -3.909 -23079.   
 8332 4115 -3.340 -23078.   
 8332 4124 -3.247 -23074.   
 8521 4109 -2.824 -23036.   
 4160 8308 -3.143 -23006.   
 4276 8304 -1.909 -22983.   
 4280 8299 -0.704 -22841.   
 8524 4109 -1.079 -22716.   
 8485 4117 -3.443 -22652.   
 4161 8317 -3.915 -22635.   
 8484 4116 -3.702 -22578.   
 4265 8322 -1.027 -22558.   
 8375 4166 -5.742 -22549.   
 8437 4154 -3.474 -22523.   
 4163 8537 -5.848 -22510.   
 8479 4119 -3.708 -22485.   
 8325 4307 -3.643 -22461.   
 8465 4136 -3.595 -22450.   
 8461 4138 -2.955 -22413.   
 8463 4136 -2.986 -22354.   
 8332 4123 -3.030 -22286.   
 8332 4122 -2.096 -22286.   
 8332 4121 -2.551 -22286.   
 8478 4119 -1.966 -22267.   
 8477 4119 -1.977 -22241.   
 8476 4119 -1.978 -22223.   
 8475 4119 -2.059 -22200.   
 8475 4120 -2.758 -22200.   
 8473 4120 -1.984 -22191.   
 8459 4138 -2.833 -22151.   
 8460 4136 -2.442 -22105.   
 8460 4135 -3.668 -22055.   
 4279 8299 -0.498 -22021.   
 4153 8293 -2.892 -21945.   
 8475 4116 -3.598 -21882.   
 8475 4117 -3.432 -21880.   
 4161 8510 -3.902 -21872.   
 8473 4117 -3.243 -21871.   
 8331 4112 -1.885 -21808.   
 8331 4111 -2.696 -21785.   
 4275 8313 -1.427 -21758.   
 4274 8313 -1.434 -21736.   
 4272 8313 -1.541 -21732.   
 4273 8313 -1.469 -21729.   
 8331 4113 -2.504 -21715.   
 4159 8565 -2.823 -21700.   
 4159 8564 -2.442 -21698.   
 8458 4135 -2.500 -21669.   
 8458 4136 -3.546 -21660.   
 8329 4112 -2.293 -21656.   
 4271 8313 -1.448 -21637.   
 4159 8299 -0.527 -21564.   
 4278 8299 -1.084 -21532.   
 4272 8309 -1.563 -21507.   
 4271 8309 -2.133 -21504.   
 4162 8540 -2.421 -21461.   
 4161 8308 -3.503 -21406.   
 8456 4136 -2.551 -21390.   
 8408 4159 -0.797 -21384.   
 4277 8299 -1.391 -21298.   
 8495 4112 -3.196 -21259.   
 4160 8306 -2.063 -21231.   
 4276 8299 -1.577 -21211.   
 4161 8555 -3.302 -21196.   
 4161 8570 -3.540 -21179.   
 8494 4112 -2.961 -21130.   
 4163 8541 -2.708 -21106.   
 4161 8514 -2.726 -21105.   
 4159 8566 -1.914 -21089.   
 4264 8322 -4.460 -21021.   
 8483 4115 -1.216 -20860.   
 8509 4109 -3.191 -20837.   
 8482 4114 -2.071 -20819.   
 8482 4115 -1.195 -20817.   
 8481 4114 -1.623 -20772.   
 8481 4115 -1.357 -20772.   
 8453 4137 -4.896 -20742.   
 8453 4136 -4.835 -20688.   
 4273 8309 -1.751 -20667.   
 8490 4112 -3.374 -20647.   
 4161 8556 -3.027 -20641.   
 8489 4112 -3.146 -20607.   
 4161 8574 -4.477 -20594.   
 8332 4114 -4.322 -20564.   
 4161 8573 -3.688 -20524.   
 4161 8306 -4.113 -20467.   
 8507 4109 -3.527 -20400.   
 8488 4112 -3.179 -20391.   
 8488 4111 -4.654 -20372.   
 4163 8542 -2.591 -20287.   
 8485 4112 -3.070 -20272.   
 4161 8557 -2.954 -20261.   
 4164 8540 -3.307 -20105.   
 4275 8307 -3.214 -20081.   
 4274 8307 -2.186 -20060.   
 4277 8295 -3.508 -20001.   
 4164 8541 -3.112 -19922.   
 8428 4153 -3.234 -19897.   
 4159 8292 -1.809 -19893.   
 8427 4153 -3.191 -19820.   
 8505 4106 -4.356 -19802.   
 8450 4138 -4.495 -19764.   
 8331 4289 -4.606 -19749.   
 4161 8558 -2.803 -19726.   
 8478 4112 -2.992 -19710.   
 8426 4153 -3.143 -19699.   
 8477 4112 -2.990 -19688.   
 4161 8560 -2.937 -19648.   
 4164 8542 -2.914 -19627.   
 4274 8309 -1.942 -19616.   
 4267 8315 -4.037 -19579.   
 8364 4169 -4.933 -19577.   
 8425 4153 -3.144 -19573.   
 8466 4116 -4.269 -19558.   
 8466 4117 -3.994 -19556.   
 8449 4138 -4.742 -19554.   
 8449 4139 -4.453 -19553.   
 4275 8305 -2.448 -19530.   
 4159 8571 -2.001 -19510.   
 4159 8567 -1.486 -19486.   
 4274 8305 -1.891 -19472.   
 4273 8305 -1.936 -19467.   
 4272 8305 -1.980 -19463.   
 4271 8305 -1.969 -19461.   
 8427 4150 -4.126 -19400.   
 4279 8292 -1.805 -19356.   
 4275 8309 -1.594 -19331.   
 4161 8559 -2.697 -19331.   
 8461 4117 -2.147 -19304.   
 4159 8294 -2.681 -19268.   
 4166 8506 -3.678 -19162.   
 8423 4153 -2.332 -19160.   
 4277 8293 -1.089 -19113.   
 8459 4117 -2.111 -19109.   
 8459 4116 -2.386 -19106.   
 4159 8569 -3.973 -19081.   
 8497 4109 -1.635 -19069.   
 4164 8543 -3.587 -19009.   
 4278 8292 -1.467 -18977.   
 4159 8568 -1.575 -18961.   
 4276 8293 -0.729 -18951.   
 4159 8574 -1.498 -18884.   
 4277 8292 -1.031 -18796.   
 8498 4109 -1.845 -18796.   
 8457 4117 -1.940 -18791.   
 8446 4137 -3.714 -18744.   
 4275 8301 -1.933 -18634.   
 8505 4109 -2.409 -18628.   
 4258 8332 -0.078 -18556.   
 4257 8332 -0.077 -18546.   
 4256 8332 -0.078 -18538.   
 4255 8332 -0.078 -18533.   
 4254 8332 -0.078 -18529.   
 4159 8575 -1.880 -18523.   
 4159 8576 -1.558 -18467.   
 4161 8325 -3.451 -18459.   
 8331 4109 -2.700 -18435.   
 4276 8292 -0.570 -18268.   
 4277 8294 -1.464 -18237.   
 4275 8300 -0.557 -18206.   
 4274 8300 -0.554 -18189.   
 4273 8300 -0.550 -18182.   
 4272 8300 -0.548 -18177.   
 4271 8300 -0.547 -18176.   
 8441 4137 -1.917 -18152.   
 4269 8313 -2.351 -18108.   
 4159 8572 -1.639 -18104.   
 4161 8534 -4.445 -18097.   
 8440 4134 -2.064 -18095.   
 8440 4137 -2.553 -18040.   
 8441 4134 -2.724 -18015.   
 4282 8293 -2.387 -17969.   
 8490 4109 -1.164 -17932.   
 4269 8310 -3.543 -17805.   
 8491 4109 -1.111 -17793.   
 8484 4110 -3.910 -17754.   
 4268 8313 -1.722 -17676.   
 8406 4159 -2.552 -17673.   
 4161 8322 -3.494 -17668.   
 4265 8315 -1.929 -17650.   
 8420 4153 -2.076 -17644.   
 8506 4105 -3.659 -17626.   
 8493 4109 -1.084 -17614.   
 8461 4112 -1.996 -17547.   
 8461 4111 -1.816 -17539.   
 4270 8307 -1.424 -17450.   
 8459 4113 -2.003 -17387.   
 8459 4112 -2.031 -17386.   
 8438 4134 -2.265 -17365.   
 4159 8578 -1.765 -17345.   
 4267 8313 -1.087 -17332.   
 8495 4109 -1.352 -17300.   
 8438 4136 -4.003 -17277.   
 8436 4137 -2.538 -17270.   
 8417 4153 -4.465 -17250.   
 8499 4109 -2.413 -17247.   
 8473 4109 -2.358 -17168.   
 8488 4109 -1.515 -17130.   
 8457 4112 -1.919 -17123.   
 8457 4111 -2.514 -17109.   
 8434 4136 -4.942 -17103.   
 8418 4150 -5.227 -17096.   
 8448 4116 -4.834 -17087.   
 8448 4117 -4.508 -17086.   
 4162 8314 -5.465 -17074.   
 4168 8445 -5.141 -17056.   
 8329 4108 -4.085 -17052.   
 4270 8305 -1.064 -17032.   
 4267 8310 -1.557 -17025.   
 4266 8313 -0.675 -17025.   
 4267 8309  0.122 -16945.   
 4266 8309  0.042 -16943.   
 4268 8309  0.148 -16937.   
 4269 8307 -0.276 -16930.   
 4159 8580 -1.401 -16901.   
 4270 8309 -0.059 -16880.   
 8489 4109 -1.230 -16868.   
 8501 4105 -4.182 -16815.   
 4266 8310 -1.727 -16806.   
 8432 4136 -4.445 -16789.   
 4269 8309 -0.074 -16755.   
 4159 8582 -1.551 -16742.   
 8494 4109 -1.126 -16692.   
 4161 8544 -3.181 -16666.   
 8476 4109 -2.476 -16622.   
 4263 8325 -1.529 -16533.   
 4260 8325 -1.542 -16516.   
 4262 8325 -1.561 -16514.   
 4269 8305 -1.863 -16508.   
 8399 4159 -1.967 -16466.   
 8411 4153 -1.288 -16465.   
 4261 8325 -1.824 -16456.   
 4259 8325 -1.444 -16454.   
 8490 4108 -3.610 -16421.   
 4270 8301 -0.380 -16346.   
 8409 4153 -1.280 -16274.   
 8477 4109 -2.569 -16247.   
 8428 4138 -3.477 -16192.   
 8405 4159 -2.179 -16149.   
 8484 4108 -1.937 -16142.   
 4268 8305 -2.377 -16123.   
 8408 4153 -1.314 -16106.   
 4279 8293 -1.677 -16062.   
 8486 4109 -1.381 -16034.   
 4270 8300 -1.872 -16016.   
 8425 4138 -3.616 -15978.   
 8408 4154 -2.838 -15971.   
 4163 8310 -3.634 -15955.   
 8331 4305 -3.569 -15946.   
 8393 4159 -4.408 -15939.   
 8424 4138 -3.413 -15918.   
 4269 8301 -1.381 -15889.   
 4263 8322 -1.654 -15854.   
 4262 8322 -1.660 -15845.   
 4261 8322 -1.746 -15825.   
 4278 8293 -1.215 -15801.   
 4260 8322 -1.671 -15795.   
 8478 4109 -2.698 -15793.   
 8484 4109 -1.546 -15778.   
 4259 8322 -1.670 -15747.   
 8423 4138 -1.941 -15700.   
 8423 4139 -3.397 -15699.   
 4159 8293 -1.669 -15681.   
 8485 4109 -1.477 -15629.   
 8462 4109 -2.642 -15608.   
 8467 4109 -2.685 -15594.   
 4269 8300 -1.899 -15577.   
 4265 8310 -2.127 -15548.   
 8426 4132 -5.362 -15533.   
 8423 4134 -4.247 -15532.   
 8331 4307 -4.904 -15523.   
 8460 4107 -5.108 -15497.   
 8468 4109 -2.676 -15474.   
 8436 4117 -3.860 -15425.   
 8464 4109 -3.193 -15424.   
 8459 4106 -3.908 -15288.   
 8446 4112 -4.121 -15280.   
 8397 4159 -2.026 -15273.   
 4161 8545 -3.147 -15271.   
 4268 8300 -1.970 -15231.   
 8470 4109 -2.793 -15228.   
 8423 4132 -3.190 -15197.   
 8392 4159 -2.093 -15188.   
 8422 4138 -2.028 -15134.   
 8422 4139 -2.294 -15133.   
 4161 8320 -4.404 -15122.   
 8422 4134 -3.571 -15110.   
 8422 4137 -3.547 -15072.   
 8444 4112 -3.851 -15061.   
 8443 4111 -4.477 -15045.   
 4264 8313 -5.083 -15034.   
 4267 8300 -2.020 -14975.   
 4264 8309 -2.520 -14909.   
 8465 4109 -2.918 -14838.   
 4161 8318 -2.566 -14811.   
 4266 8300 -2.053 -14806.   
 8469 4109 -2.542 -14804.   
 8461 4109 -1.689 -14795.   
 8388 4159 -2.467 -14739.   
 4161 8547 -6.033 -14725.   
 4168 8463 -6.219 -14701.   
 4162 8562 -4.972 -14689.   
 8420 4139 -2.051 -14670.   
 8420 4138 -1.787 -14669.   
 8422 4132 -3.154 -14667.   
 8420 4134 -2.884 -14649.   
 8459 4109 -1.693 -14578.   
 8458 4109 -3.359 -14514.   
 4161 8315 -2.651 -14508.   
 8427 4117 -3.655 -14460.   
 8461 4108 -2.615 -14397.   
 4162 8299 -4.051 -14344.   
 8460 4109 -3.069 -14304.   
 8387 4159 -2.235 -14302.   
 8420 4132 -3.048 -14232.   
 4169 8438 -3.898 -14219.   
 8375 4164 -4.337 -14171.   
 4163 8299 -3.011 -14141.   
 8423 4117 -1.696 -14109.   
 8386 4159 -2.080 -14078.   
 4163 8296 -3.401 -14059.   
 8405 4155 -5.417 -14046.   
 8372 4166 -6.334 -14016.   
 8414 4137 -5.146 -14012.   
 4164 8563 -5.046 -13999.   
 4164 8564 -4.986 -13979.   
 8385 4159 -2.352 -13940.   
 8374 4164 -4.324 -13882.   
 8411 4138 -0.693 -13844.   
 8411 4137 -3.652 -13791.   
 4169 8440 -3.325 -13764.   
 4162 8295 -3.455 -13743.   
 4164 8296 -3.853 -13738.   
 8382 4159 -1.995 -13722.   
 8409 4138 -0.888 -13706.   
 8409 4139 -1.167 -13705.   
 8409 4134 -2.599 -13686.   
 8409 4137 -2.593 -13655.   
 8422 4117 -1.760 -13649.   
 8422 4116 -2.016 -13648.   
 8457 4109 -1.821 -13630.   
 4169 8441 -3.029 -13599.   
 8408 4139 -1.194 -13591.   
 8408 4138 -0.942 -13590.   
 8408 4134 -2.105 -13573.   
 8408 4137 -2.645 -13542.   
 4263 8318 -0.698 -13515.   
 4262 8318 -0.701 -13508.   
 4261 8318 -0.787 -13494.   
 4260 8318 -0.694 -13472.   
 8406 4153 -3.039 -13469.   
 4259 8318 -0.694 -13439.   
 4169 8445 -3.616 -13400.   
 8455 4109 -3.236 -13397.   
 8374 4163 -3.211 -13360.   
 8396 4155 -0.986 -13343.   
 8395 4155 -0.985 -13307.   
 8380 4159 -1.213 -13291.   
 8393 4155 -0.984 -13282.   
 8379 4159 -1.476 -13281.   
 8420 4117 -1.487 -13270.   
 4263 8315 -0.777 -13264.   
 4262 8315 -0.780 -13257.   
 4261 8315 -0.860 -13241.   
 4260 8315 -0.775 -13220.   
 4259 8315 -0.778 -13187.   
 8423 4113 -2.672 -13147.   
 8423 4112 -4.269 -13147.   
 8423 4111 -2.155 -13139.   
 8373 4162 -3.175 -13095.   
 4161 8309 -3.978 -13077.   
 4161 8310 -2.618 -13056.   
 4163 8569 -3.000 -13029.   
 8405 4153 -3.025 -13014.   
 4169 8448 -4.023 -12982.   
 8385 4156 -4.319 -12977.   
 4163 8570 -3.338 -12960.   
 8381 4159 -1.801 -12896.   
 8447 4109 -3.714 -12800.   
 8378 4159 -1.816 -12769.   
 4164 8569 -3.024 -12754.   
 8422 4113 -2.552 -12748.   
 8449 4109 -3.388 -12743.   
 8422 4111 -1.960 -12741.   
 4258 8326 -0.816 -12709.   
 4257 8326 -0.820 -12704.   
 4256 8326 -0.815 -12701.   
 4255 8326 -0.814 -12698.   
 4254 8326 -0.814 -12696.   
 8432 4109 -1.940 -12676.   
 8399 4153 -3.053 -12668.   
 8376 4159 -1.891 -12664.   
 8433 4109 -2.023 -12620.   
 4254 8324 -2.972 -12607.   
 8446 4109 -3.291 -12600.   
 8411 4117 -0.395 -12592.   
 8411 4116 -1.929 -12590.   
 4169 8452 -4.016 -12535.   
 8434 4109 -1.997 -12516.   
 4166 8320 -2.873 -12486.   
 8409 4117 -0.588 -12477.   
 8409 4116 -0.858 -12476.   
 4169 8451 -3.941 -12452.   
 8397 4153 -3.140 -12450.   
 4163 8576 -4.395 -12436.   
 4168 8501 -4.159 -12434.   
 8420 4113 -2.178 -12418.   
 8420 4111 -1.811 -12411.   
 8408 4117 -0.622 -12381.   
 8408 4116 -0.891 -12381.   
 8435 4109 -1.960 -12364.   
 4161 8304 -3.100 -12345.   
 8482 4106 -3.712 -12338.   
 8378 4156 -4.300 -12302.   
 8345 4170 -6.171 -12288.   
 8344 4170 -5.938 -12279.   
 4169 8456 -5.385 -12276.   
 8431 4109 -2.655 -12225.   
 4163 8578 -3.616 -12196.   
 4164 8574 -4.311 -12191.   
 4263 8312 -1.432 -12170.   
 4262 8312 -1.434 -12164.   
 4261 8312 -1.524 -12152.   
 8439 4109 -1.910 -12142.   
 4260 8312 -1.425 -12135.   
 8424 4109 -2.444 -12116.   
 4259 8312 -1.423 -12108.   
 8430 4109 -2.747 -12050.   
 4263 8310 -0.733 -12043.   
 4261 8309 -2.151 -12039.   
 4262 8310 -0.743 -12037.   
 8425 4109 -2.428 -12028.   
 4261 8310 -0.830 -12021.   
 4260 8310 -0.744 -12004.   
 4169 8463 -2.982 -11980.   
 4259 8310 -0.720 -11977.   
 8436 4109 -3.391 -11916.   
 8426 4109 -2.402 -11908.   
 4169 8464 -2.956 -11893.   
 4169 8467 -3.603 -11870.   
 8429 4109 -2.988 -11839.   
 8438 4109 -3.629 -11833.   
 8411 4113 -2.501 -11820.   
 8411 4112 -2.451 -11820.   
 4161 8299 -2.050 -11815.   
 8411 4111 -2.197 -11813.   
 4259 8309 -3.294 -11780.   
 4163 8292 -2.504 -11765.   
 8427 4109 -2.408 -11752.   
 4161 8293 -3.144 -11741.   
 8409 4112 -2.805 -11719.   
 8409 4113 -2.927 -11719.   
 8409 4111 -1.836 -11713.   
 4169 8468 -3.450 -11705.   
 8388 4153 -3.502 -11694.   
 8406 4138 -3.380 -11662.   
 8408 4113 -2.110 -11636.   
 8408 4112 -2.958 -11634.   
 8408 4111 -1.940 -11630.   
 8423 4106 -3.250 -11620.   
 8422 4106 -3.251 -11582.   
 4259 8307 -5.085 -11575.   
 8406 4134 -4.858 -11569.   
 8428 4109 -2.415 -11533.   
 8396 4148 -2.738 -11486.   
 8395 4148 -2.738 -11459.   
 4263 8304 -1.240 -11432.   
 4262 8304 -1.243 -11427.   
 4261 8304 -1.329 -11416.   
 4260 8304 -1.237 -11400.   
 4259 8304 -1.236 -11377.   
 4161 8566 -3.168 -11359.   
 8405 4138 -3.351 -11319.   
 8396 4146 -1.748 -11256.   
 8395 4147 -2.592 -11232.   
 8395 4146 -1.814 -11230.   
 8393 4147 -2.143 -11212.   
 8393 4146 -1.967 -11212.   
 4265 8293 -2.397 -11211.   
 4169 8472 -3.821 -11210.   
 8386 4153 -3.144 -11206.   
 8385 4153 -2.839 -11186.   
 4166 8317 -2.366 -11174.   
 8422 4109 -1.375 -11170.   
 4169 8479 -3.961 -11059.   
 8399 4139 -3.496 -11056.   
 8384 4153 -3.288 -11055.   
 8399 4138 -3.702 -11055.   
 8385 4150 -3.831 -11052.   
 8421 4109 -4.074 -11050.   
 4161 8569 -3.721 -11029.   
 4161 8292 -2.875 -11003.   
 8423 4109 -1.325 -10986.   
 4263 8299 -0.176 -10976.   
 4262 8299 -0.181 -10971.   
 4261 8299 -0.259 -10961.   
 4260 8299 -0.177 -10947.   
 4259 8299 -0.182 -10925.   
 8397 4138 -3.491 -10878.   
 8382 4150 -3.806 -10850.   
 4161 8571 -3.774 -10840.   
 4258 8319 -3.097 -10838.   
 4257 8319 -3.094 -10834.   
 4256 8319 -3.090 -10832.   
 8381 4153 -2.973 -10815.   
 8380 4153 -1.487 -10764.   
 8420 4108 -2.358 -10751.   
 8409 4106 -3.040 -10726.   
 4168 8328 -2.701 -10702.   
 8379 4153 -1.510 -10695.   
 8378 4153 -3.024 -10679.   
 8396 4133 -2.472 -10644.   
 8377 4153 -1.535 -10633.   
 8395 4133 -2.473 -10620.   
 8376 4153 -3.085 -10606.   
 8393 4133 -2.474 -10602.   
 8377 4154 -3.028 -10573.   
 8411 4106 -3.049 -10571.   
 8408 4106 -3.365 -10540.   
 4166 8560 -3.305 -10394.   
 8409 4109 -1.207 -10372.   
 8408 4109 -1.348 -10357.   
 8388 4138 -4.050 -10308.   
 8396 4124 -2.162 -10299.   
 8395 4124 -2.458 -10278.   
 8395 4125 -2.988 -10278.   
 8393 4124 -2.584 -10262.   
 8393 4125 -2.538 -10261.   
 4261 8292 -2.192 -10258.   
 8399 4116 -3.517 -10242.   
 8406 4112 -3.122 -10192.   
 4169 8505 -4.103 -10191.   
 8408 4108 -2.303 -10160.   
 4263 8292 -2.338 -10131.   
 4262 8292 -2.614 -10127.   
 4169 8330 -3.215 -10120.   
 8372 4163 -2.980 -10078.   
 8411 4109 -1.186 -10074.   
 4169 8507 -3.207 -10010.   
 4168 8534 -3.957 -9980.7   
 4255 8313 -2.252 -9958.7   
 4258 8313 -2.313 -9954.1   
 4257 8313 -2.299 -9951.7   
 4256 8313 -2.269 -9950.4   
 8385 4138 -3.032 -9910.8   
 4255 8309 -1.799 -9868.4   
 4254 8309 -1.630 -9867.3   
 4169 8508 -2.921 -9862.5   
 8371 4163 -3.050 -9821.1   
 8371 4162 -3.915 -9803.6   
 8396 4115 -1.407 -9766.5   
 4251 8331 -1.457 -9754.1   
 8395 4114 -2.258 -9747.4   
 8395 4115 -1.445 -9746.9   
 8393 4115 -1.601 -9732.3   
 8393 4114 -1.809 -9732.2   
 4256 8309 -1.990 -9723.6   
 4252 8330 -3.828 -9697.4   
 8370 4162 -3.028 -9674.3   
 8375 4161 -3.507 -9643.3   
 4169 8509 -2.711 -9632.5   
 8381 4138 -3.661 -9617.7   
 8381 4139 -3.275 -9617.3   
 8388 4117 -4.156 -9597.4   
 8397 4113 -3.344 -9590.0   
 8397 4112 -3.221 -9588.2   
 4257 8307 -2.745 -9585.2   
 4257 8309 -2.297 -9528.8   
 8379 4138 -3.671 -9523.0   
 8379 4139 -3.818 -9522.6   
 8392 4112 -3.023 -9520.5   
 8378 4139 -3.593 -9512.1   
 8378 4138 -3.375 -9511.4   
 4168 8321 -4.039 -9493.5   
 8377 4139 -3.689 -9475.2   
 8377 4138 -3.340 -9474.4   
 8377 4134 -4.480 -9466.2   
 4258 8309 -2.227 -9413.4   
 8374 4161 -3.577 -9404.8   
 8380 4132 -2.224 -9388.8   
 4169 8510 -3.750 -9376.4   
 4169 8511 -2.589 -9371.7   
 8407 4109 -3.518 -9342.8   
 4168 8541 -4.147 -9341.1   
 8379 4132 -2.198 -9335.7   
 8377 4132 -2.173 -9290.2   
 4261 8293 -2.478 -9252.8   
 4169 8512 -2.751 -9252.3   
 8385 4117 -3.010 -9252.1   
 4258 8301 -3.015 -9244.9   
 4169 8515 -2.945 -9242.5   
 4260 8293 -2.375 -9242.4   
 8382 4119 -3.993 -9163.4   
 4169 8517 -2.457 -9151.5   
 4258 8300 -0.522 -9138.3   
 4257 8300 -0.519 -9136.1   
 4256 8300 -0.519 -9134.3   
 4255 8300 -0.518 -9133.0   
 4254 8300 -0.518 -9132.0   
 8402 4109 -2.750 -9111.8   
 4169 8520 -3.402 -9111.7   
 8382 4117 -3.040 -9109.3   
 8401 4109 -2.771 -9090.2   
 4169 8523 -3.722 -9085.1   
 8403 4109 -2.720 -9038.1   
 4168 8320 -2.735 -9003.7   
 8381 4116 -3.182 -8995.3   
 8387 4112 -3.168 -8972.0   
 8380 4117 -1.701 -8961.8   
 8404 4109 -2.681 -8936.1   
 8379 4117 -1.796 -8912.8   
 8379 4116 -2.043 -8912.3   
 8376 4120 -4.009 -8903.6   
 8378 4116 -3.618 -8903.2   
 8378 4117 -3.224 -8902.8   
 4247 8331 -4.399 -8896.7   
 8377 4116 -2.016 -8870.8   
 8377 4117 -1.728 -8870.4   
 8406 4109 -1.379 -8843.1   
 8385 4112 -2.461 -8828.7   
 4169 8327 -4.546 -8804.8   
 8389 4109 -2.701 -8748.6   
 8384 4112 -3.001 -8746.5   
 8382 4112 -2.476 -8698.5   
 4169 8530 -3.259 -8666.7   
 8405 4109 -1.198 -8644.2   
 8390 4109 -2.686 -8640.1   
 8398 4109 -2.596 -8627.4   
 4250 8330 -2.794 -8616.4   
 4249 8330 -2.855 -8608.5   
 8381 4113 -2.798 -8595.2   
 8381 4112 -2.955 -8594.9   
 8381 4111 -3.213 -8592.0   
 8397 4108 -1.642 -8564.5   
 8380 4112 -1.094 -8563.9   
 8380 4113 -2.489 -8563.6   
 8394 4109 -2.647 -8527.9   
 8379 4113 -1.868 -8519.4   
 8379 4112 -1.261 -8519.2   
 8379 4111 -1.737 -8516.3   
 8399 4109 -1.088 -8512.6   
 8369 4164 -3.114 -8489.8   
 8377 4113 -1.425 -8481.5   
 8377 4112 -1.271 -8480.3   
 8392 4109 -0.990 -8468.9   
 8397 4109 -1.141 -8460.9   
 8344 4169 -4.941 -8434.8   
 8343 4169 -5.420 -8428.5   
 4170 8456 -3.402 -8394.8   
 4244 8330 -2.714 -8310.5   
 4168 8317 -1.642 -8300.6   
 8386 4106 -3.467 -8263.4   
 4252 8321 -3.727 -8098.3   
 8388 4109 -1.347 -8042.0   
 4237 8329 -2.068 -8022.1   
 4236 8329 -2.381 -8007.9   
 4236 8331 -2.404 -8000.9   
 4251 8322 -1.859 -7987.5   
 8383 4109 -1.213 -7986.2   
 8376 4109 -0.762 -7968.2   
 4235 8331 -2.637 -7959.7   
 8381 4109 -0.781 -7956.9   
 8378 4109 -0.768 -7956.2   
 8382 4109 -0.807 -7954.3   
 8385 4109 -0.855 -7945.9   
 4234 8331 -2.409 -7926.5   
 8387 4109 -1.273 -7910.2   
 4168 8306 -3.188 -7902.2   
 8380 4106 -3.225 -7888.4   
 8384 4108 -1.875 -7886.4   
 8377 4106 -3.223 -7884.0   
 4168 8560 -2.590 -7862.3   
 8379 4106 -3.163 -7850.9   
 4233 8331 -2.416 -7850.4   
 8386 4109 -1.239 -7826.3   
 4238 8330 -2.730 -7826.2   
 8380 4109 -1.336 -7821.4   
 8384 4109 -1.332 -7798.4   
 8379 4109 -1.329 -7784.5   
 8377 4109 -1.359 -7780.9   
 4240 8330 -3.268 -7699.8   
 4239 8330 -3.052 -7670.7   
 8377 4108 -2.984 -7669.3   
 8372 4161 -3.081 -7651.2   
 4253 8317 -2.101 -7612.1   
 4168 8295 -2.373 -7540.5   
 8375 4117 -3.631 -7523.8   
 4168 8296 -2.596 -7515.7   
 8371 4161 -3.164 -7501.8   
 8370 4161 -3.675 -7425.9   
 8396 4106 -3.344 -7385.6   
 8395 4106 -3.408 -7374.1   
 4249 8321 -3.429 -7324.5   
 4253 8306 -1.946 -7275.7   
 4251 8315 -3.195 -7271.5   
 4252 8317 -2.017 -7268.4   
 4239 8328 -3.190 -7257.3   
 4169 8308 -2.348 -7104.7   
 4253 8296 -3.481 -7098.1   
 4245 8317 -3.101 -7052.6   
 4231 8331 -4.549 -7050.8   
 4243 8325 -4.748 -7043.9   
 4169 8306 -4.206 -7042.3   
 4252 8306 -2.306 -7029.3   
 4244 8321 -3.236 -7027.2   
 4238 8327 -3.600 -7015.7   
 8372 4149 -4.398 -6992.6   
 4251 8310 -1.517 -6887.8   
 4236 8325 -1.219 -6883.1   
 4235 8325 -1.214 -6855.4   
 4234 8325 -1.461 -6837.8   
 4232 8330 -3.338 -6825.8   
 4170 8328 -3.875 -6823.5   
 4230 8330 -2.958 -6812.4   
 4233 8325 -1.539 -6787.6   
 4169 8296 -2.989 -6783.6   
 8367 4159 -1.582 -6778.2   
 4237 8322 -2.154 -6774.2   
 4236 8322 -2.159 -6764.1   
 4235 8322 -2.184 -6743.3   
 8365 4159 -1.368 -6737.3   
 4234 8322 -2.221 -6710.8   
 4241 8321 -2.586 -6706.0   
 4239 8317 -1.680 -6700.6   
 8368 4159 -2.323 -6690.9   
 8364 4159 -1.345 -6679.1   
 4233 8322 -2.205 -6664.1   
 8366 4159 -2.105 -6647.9   
 4169 8569 -2.545 -6620.0   
 4170 8327 -2.247 -6612.2   
 4243 8321 -2.662 -6595.2   
 4170 8530 -4.106 -6557.3   
 4169 8570 -2.907 -6543.2   
 8372 4134 -2.494 -6518.1   
 8363 4159 -1.384 -6485.4   
 4247 8309 -2.686 -6469.2   
 8362 4159 -1.510 -6465.5   
 8371 4137 -2.579 -6460.7   
 8369 4154 -3.419 -6444.0   
 4250 8306 -3.439 -6443.3   
 8371 4134 -3.188 -6443.3   
 4249 8306 -2.683 -6438.9   
 4239 8320 -2.116 -6434.2   
 4226 8330 -3.067 -6432.6   
 8370 4138 -3.602 -6414.9   
 8370 4134 -2.613 -6411.2   
 4169 8576 -4.369 -6407.1   
 8370 4137 -3.136 -6404.3   
 8370 4136 -3.755 -6399.2   
 4228 8330 -2.867 -6354.1   
 4244 8317 -2.966 -6351.6   
 4227 8330 -3.297 -6333.0   
 4170 8317 -2.575 -6329.1   
 4237 8318 -0.917 -6307.8   
 4236 8318 -0.917 -6299.0   
 4235 8318 -0.916 -6280.9   
 4234 8318 -0.916 -6252.7   
 4237 8315 -0.671 -6252.4   
 4236 8315 -0.671 -6243.7   
 4235 8315 -0.672 -6225.7   
 4169 8292 -2.308 -6224.1   
 4233 8318 -0.914 -6212.6   
 4234 8315 -0.673 -6198.0   
 4248 8296 -2.871 -6178.7   
 4233 8315 -0.674 -6158.2   
 4244 8306 -2.702 -6115.6   
 4170 8545 -3.328 -6115.0   
 4170 8320 -2.228 -6090.9   
 4229 8323 -1.927 -6080.6   
 8367 4153 -2.569 -6053.5   
 4243 8308 -3.684 -6018.3   
 8365 4153 -2.651 -6001.3   
 4246 8296 -3.700 -5998.8   
 4237 8312 -1.726 -5998.3   
 4236 8312 -1.725 -5990.3   
 4235 8312 -1.724 -5974.0   
 4237 8310 -0.527 -5967.3   
 4236 8310 -0.534 -5959.4   
 4234 8312 -1.721 -5948.5   
 4235 8309 -1.844 -5946.5   
 4235 8310 -0.542 -5942.2   
 4234 8309 -1.810 -5921.2   
 4234 8310 -0.541 -5916.9   
 4233 8312 -1.716 -5912.2   
 4245 8295 -1.912 -5898.9   
 4245 8296 -1.957 -5883.7   
 4233 8310 -0.515 -5880.8   
 8350 4161 -3.528 -5876.8   
 4241 8306 -3.362 -5870.8   
 4233 8309 -3.151 -5832.8   
 4237 8304 -1.201 -5813.2   
 4236 8304 -1.200 -5805.8   
 4235 8304 -1.199 -5790.4   
 8361 4159 -1.693 -5783.7   
 4234 8304 -1.200 -5766.5   
 8369 4134 -1.738 -5759.0   
 8360 4159 -1.413 -5744.3   
 4233 8304 -1.197 -5732.3   
 4248 8292 -2.186 -5711.0   
 4237 8299  0.129 -5693.0   
 4236 8299  0.129 -5685.8   
 4235 8299  0.128 -5671.1   
 4239 8295 -1.583 -5650.6   
 4234 8299  0.127 -5648.1   
 4233 8299  0.127 -5615.3   
 8359 4159 -1.315 -5593.4   
 8345 4161 -1.584 -5573.1   
 8358 4159 -1.371 -5572.0   
 8344 4161 -1.608 -5571.4   
 8343 4161 -2.698 -5568.7   
 4239 8292 -2.723 -5550.1   
 8357 4159 -1.460 -5549.9   
 4216 8327 -2.676 -5530.1   
 8363 4137 -2.655 -5528.1   
 4225 8323 -3.338 -5521.3   
 4236 8293 -2.702 -5517.3   
 8362 4134 -2.249 -5507.2   
 4244 8292 -2.843 -5505.4   
 4235 8293 -2.498 -5495.9   
 4219 8328 -3.337 -5481.9   
 4234 8292 -2.620 -5455.5   
 4236 8292 -2.558 -5450.4   
 8367 4117 -3.304 -5438.4   
 4235 8292 -2.454 -5436.9   
 4170 8295 -1.278 -5384.1   
 4170 8296 -1.443 -5371.4   
 8356 4159 -1.507 -5334.5   
 8355 4159 -1.328 -5282.4   
 4229 8306 -2.336 -5262.5   
 8361 4153 -2.577 -5247.7   
 4231 8296 -2.302 -5177.7   
 8359 4153 -2.748 -5162.6   
 4170 8578 -2.106 -5155.6   
 8354 4159 -1.407 -5148.5   
 4232 8295 -2.754 -5108.3   
 4231 8295 -2.716 -5108.2   
 4230 8296 -2.250 -5089.4   
 4218 8321 -3.396 -5068.8   
 4232 8293 -2.215 -5042.0   
 4230 8293 -2.158 -5041.1   
 4231 8292 -2.017 -5025.9   
 4211 8330 -2.352 -5023.2   
 8366 4109 -1.432 -5003.5   
 8369 4109 -2.425 -5000.5   
 4215 8321 -3.543 -4987.6   
 8368 4108 -2.425 -4981.6   
 4230 8294 -2.035 -4978.0   
 4228 8299 -3.339 -4976.7   
 4228 8296 -2.909 -4966.4   
 4210 8330 -2.480 -4946.7   
 8368 4109 -1.842 -4946.3   
 8367 4109 -1.013 -4901.2   
 8362 4109 -0.862 -4899.5   
 8365 4109 -0.872 -4866.7   
 8363 4108 -1.533 -4866.7   
 8364 4109 -0.812 -4843.4   
 8363 4109 -0.912 -4833.1   
 4232 8292 -1.475 -4812.0   
 4230 8292 -1.559 -4805.3   
 4206 8331 -2.651 -4781.1   
 4227 8292 -1.874 -4617.6   
 4218 8306 -2.545 -4606.0   
 8344 4159 -1.165 -4604.1   
 8343 4159 -1.005 -4590.6   
 8353 4155 -2.529 -4579.0   
 8345 4159 -1.296 -4544.4   
 4210 8317 -2.145 -4524.3   
 4219 8293 -1.661 -4465.9   
 4220 8293 -1.862 -4461.4   
 4221 8292 -1.916 -4450.7   
 4213 8295 -2.818 -4443.8   
 4216 8296 -2.064 -4443.0   
 4220 8292 -1.844 -4422.5   
 4219 8292 -2.405 -4421.9   
 4219 8294 -2.231 -4416.3   
 8357 4109 -0.632 -4410.7   
 8358 4109 -0.625 -4408.4   
 8359 4109 -0.632 -4407.0   
 8360 4109 -0.649 -4406.6   
 8361 4109 -0.675 -4405.0   
 4214 8293 -2.350 -4397.2   
 4205 8327 -2.024 -4369.1   
 8356 4113 -1.836 -4367.0   
 8356 4111 -1.339 -4366.1   
 8355 4113 -1.730 -4321.6   
 8355 4111 -1.165 -4320.8   
 4208 8321 -1.963 -4313.1   
 4207 8321 -2.006 -4312.6   
 4209 8321 -1.908 -4295.2   
 8354 4113 -1.505 -4291.3   
 8354 4111 -1.079 -4290.5   
 4202 8330 -1.952 -4258.6   
 8345 4153 -1.187 -4248.5   
 8344 4153 -1.177 -4248.0   
 8343 4153 -1.177 -4246.3   
 4200 8330 -1.844 -4228.7   
 4216 8292 -1.294 -4225.0   
 4203 8330 -2.295 -4223.7   
 4214 8292 -1.514 -4221.3   
 4213 8292 -1.760 -4217.9   
 4198 8330 -2.180 -4209.7   
 4201 8330 -2.024 -4199.1   
 4197 8331 -2.242 -4198.8   
 4196 8331 -2.315 -4198.1   
 4193 8329 -2.042 -4196.0   
 4194 8331 -2.298 -4191.6   
 4199 8330 -2.032 -4174.3   
 4191 8331 -3.331 -4161.9   
 8353 4124 -2.927 -4157.5   
 8355 4106 -2.903 -4142.7   
 8352 4124 -3.613 -4138.5   
 8351 4125 -3.721 -4137.9   
 8351 4115 -3.294 -4137.8   
 8351 4124 -3.234 -4137.7   
 4205 8320 -3.120 -4135.3   
 8346 4138 -3.367 -4134.1   
 8354 4106 -2.849 -4132.8   
 8355 4109 -0.669 -4124.1   
 8354 4109 -0.774 -4104.3   
 8356 4109 -0.624 -4099.1   
 8350 4117 -3.194 -4085.4   
 8350 4116 -3.473 -4085.3   
 4202 8328 -2.989 -4083.3   
 8354 4108 -1.696 -4073.0   
 4210 8296 -2.116 -4062.9   
 8345 4139 -1.644 -4050.8   
 8345 4138 -1.388 -4050.7   
 8344 4138 -1.365 -4050.0   
 8344 4139 -1.642 -4049.9   
 8345 4134 -2.527 -4049.2   
 8343 4138 -1.173 -4048.6   
 8343 4139 -2.720 -4048.5   
 4212 8296 -2.143 -4046.8   
 8349 4115 -3.491 -4021.2   
 4211 8296 -2.174 -4019.7   
 8345 4132 -2.781 -4016.6   
 8344 4132 -2.809 -4015.7   
 8351 4113 -3.232 -4015.4   
 8351 4112 -3.316 -4015.4   
 8351 4111 -2.844 -4014.7   
 8343 4132 -2.825 -4014.3   
 4209 8306 -2.471 -4008.0   
 8350 4111 -2.570 -4000.0   
 4212 8292 -2.010 -3954.8   
 8345 4116 -1.556 -3936.2   
 8345 4117 -1.288 -3936.1   
 8344 4117 -1.284 -3935.4   
 8344 4116 -1.553 -3935.3   
 8343 4117 -1.097 -3934.1   
 4209 8296 -2.678 -3931.8   
 4208 8296 -2.738 -3892.6   
 4197 8325 -1.174 -3872.2   
 4194 8325 -1.663 -3868.2   
 4196 8325 -0.943 -3866.5   
 4195 8325 -1.527 -3866.4   
 8353 4106 -0.780 -3863.0   
 8351 4106 -0.793 -3860.4   
 8343 4112 -1.416 -3855.5   
 8352 4106 -1.144 -3846.6   
 8346 4110 -1.062 -3829.8   
 8348 4106 -0.695 -3828.8   
 8347 4106 -0.770 -3826.7   
 8352 4109 -1.632 -3823.0   
 8349 4106 -0.647 -3820.8   
 4186 8331 -1.378 -3807.5   
 8335 4155 -1.915 -3805.7   
 4184 8331 -1.464 -3805.1   
 4185 8331 -1.558 -3803.4   
 8334 4155 -1.924 -3789.6   
 8346 4109 -2.586 -3780.7   
 8333 4155 -1.932 -3778.2   
 4205 8293 -1.865 -3760.1   
 4206 8292 -1.382 -3757.8   
 4204 8292 -1.548 -3730.6   
 4205 8294 -2.012 -3728.4   
 4187 8327 -2.503 -3717.2   
 8341 4115 -4.039 -3707.8   
 8333 4153 -4.373 -3699.2   
 4197 8318 -2.499 -3677.3   
 4196 8318 -2.529 -3676.8   
 4194 8318 -2.479 -3674.4   
 4203 8306 -3.320 -3624.5   
 8334 4148 -3.246 -3623.2   
 4181 8331 -2.269 -3623.1   
 4200 8308 -2.510 -3622.8   
 4179 8331 -2.830 -3622.7   
 4182 8331 -2.786 -3621.0   
 4179 8330 -2.134 -3562.2   
 8350 4106 -1.014 -3559.9   
 8342 4109 -2.129 -3544.6   
 4201 8296 -2.578 -3544.5   
 8341 4106 -1.409 -3536.8   
 4182 8330 -3.134 -3529.7   
 4183 8330 -3.322 -3529.7   
 8340 4106 -1.285 -3525.5   
 4189 8317 -2.869 -3525.3   
 8333 4133 -2.650 -3524.8   
 8337 4110 -1.376 -3521.0   
 8339 4106 -1.337 -3519.5   
 8338 4106 -1.395 -3517.9   
 8341 4109 -2.613 -3516.8   
 8340 4109 -2.601 -3516.0   
 8339 4109 -2.494 -3514.6   
 8335 4124 -2.689 -3509.9   
 4199 8296 -2.592 -3509.2   
 4197 8304 -2.813 -3503.6   
 8336 4106 -2.189 -3503.3   
 4196 8304 -2.842 -3503.1   
 4185 8322 -3.799 -3501.4   
 4195 8304 -2.825 -3501.4   
 4198 8296 -3.072 -3501.3   
 4194 8304 -2.796 -3500.9   
 4184 8322 -3.981 -3500.6   
 4193 8304 -2.826 -3500.3   
 4200 8295 -3.418 -3499.7   
 8337 4106 -2.343 -3495.5   
 4198 8295 -2.424 -3486.7   
 4197 8299 -1.762 -3459.5   
 4196 8299 -1.792 -3459.0   
 4194 8299 -1.733 -3456.9   
 8335 4115 -1.292 -3445.8   
 8334 4115 -1.361 -3432.6   
 8333 4114 -1.708 -3423.1   
 8333 4115 -1.522 -3423.1   
 4189 8296 -3.415 -3410.9   
 8334 4111 -3.310 -3407.9   
 8333 4111 -3.063 -3398.4   
 4193 8293 -1.882 -3390.4   
 4196 8292 -2.467 -3385.8   
 4195 8292 -2.024 -3384.3   
 4183 8325 -3.031 -3377.6   
 4202 8292 -2.149 -3376.9   
 4179 8325 -2.493 -3374.9   
 4182 8325 -2.164 -3373.7   
 4181 8325 -2.168 -3373.4   
 4193 8292 -1.769 -3367.9   
 4180 8323 -2.807 -3367.8   
 4198 8292 -2.275 -3346.1   
 8333 4106 -1.343 -3310.1   
 8335 4109 -2.522 -3300.0   
 8335 4106 -1.258 -3297.7   
 8334 4106 -1.176 -3296.1   
 4183 8321 -3.008 -3293.0   
 8334 4109 -2.731 -3289.3   
 8333 4109 -2.874 -3284.4   
 4188 8294 -2.577 -3280.2   
 4186 8309 -3.942 -3274.7   
 4186 8310 -3.714 -3273.4   
 4197 8293 -1.043 -3269.0   
 4196 8293 -1.156 -3268.6   
 4195 8293 -1.476 -3267.1   
 4191 8292 -1.759 -3265.1   
 4184 8309 -4.040 -3256.7   
 4185 8309 -4.112 -3252.9   
 4191 8293 -2.384 -3246.6   
 4187 8292 -1.749 -3246.1   
 4182 8318 -3.985 -3228.4   
 4183 8318 -3.973 -3228.4   
 4181 8318 -3.997 -3228.1   
 4180 8318 -3.963 -3228.0   
 4179 8318 -4.008 -3227.8   
 4188 8292 -1.156 -3204.3   
 4186 8299 -3.854 -3189.4   
 4185 8299 -3.500 -3188.5   
 4184 8299 -3.443 -3187.8   
 4184 8296 -4.905 -3183.6   
 4179 8314 -4.318 -3166.7   
 4184 8295 -5.617 -3157.1   
 4180 8312 -4.360 -3144.9   
 4186 8292 -3.007 -3127.1   
 4184 8292 -2.898 -3125.5   
 4185 8292 -2.248 -3113.1   
 4180 8306 -4.595 -3100.8   
 4180 8304 -4.605 -3093.3   
 4181 8292 -3.313 -2924.0   
 4176 8331 -3.158 -2487.7   
 4175 8331 -2.813 -2480.5   
 4174 8329 -2.698 -2477.4   
 4173 8331 -2.092 -2466.0   
 4177 8330 -4.394 -2453.2   
 4175 8330 -3.632 -2452.0   
 4175 8327 -4.433 -2419.6   
 4178 8325 -2.942 -2390.8   
 4177 8325 -2.561 -2376.8   
 4178 8322 -2.401 -2375.0   
 4176 8325 -2.491 -2367.3   
 4177 8322 -2.421 -2363.2   
 4175 8325 -2.846 -2361.6   
 4176 8322 -2.509 -2353.8   
 4175 8322 -2.583 -2347.4   
 4173 8322 -2.478 -2335.4   
 4178 8318 -2.696 -2315.1   
 4178 8315 -2.438 -2307.5   
 4177 8318 -2.710 -2303.7   
 4177 8315 -2.479 -2296.2   
 4176 8318 -2.721 -2294.9   
 4175 8318 -2.728 -2288.7   
 4176 8315 -2.513 -2287.4   
 4174 8318 -2.732 -2285.6   
 4173 8320 -7.078 -2284.6   
 4175 8315 -2.538 -2281.4   
 4174 8315 -2.551 -2278.3   
 4178 8312 -3.173 -2272.0   
 4173 8315 -2.861 -2270.0   
 4178 8310 -2.494 -2267.4   
 4176 8314 -2.921 -2263.8   
 4177 8312 -3.190 -2261.1   
 4177 8309 -3.585 -2257.2   
 4177 8310 -2.549 -2256.5   
 4174 8314 -2.516 -2254.8   
 4176 8312 -3.204 -2252.6   
 4178 8307 -5.108 -2252.5   
 4176 8310 -2.573 -2248.0   
 4178 8309 -3.959 -2246.8   
 4175 8312 -3.213 -2246.7   
 4178 8304 -3.022 -2245.0   
 4175 8310 -2.600 -2242.3   
 4174 8310 -2.616 -2239.3   
 4176 8309 -3.791 -2238.8   
 4177 8304 -3.036 -2234.3   
 4173 8310 -0.919 -2231.2   
 4178 8299 -2.207 -2226.8   
 4175 8304 -3.055 -2220.2   
 4174 8304 -3.060 -2217.2   
 4177 8299 -2.209 -2216.3   
 4176 8299 -2.211 -2208.1   
 4175 8299 -2.212 -2202.4   
 4174 8299 -2.213 -2199.5   
 4176 8292 -3.162 -2178.0   
 4175 8292 -2.571 -2172.5   
 4174 8292 -1.917 -2163.4   
 4177 8292 -4.154 -2144.5   
 4177 8293 -1.925 -2136.5   
 4176 8293 -1.871 -2128.9   
 4175 8293 -2.160 -2123.6   
 4173 8293 -2.523 -2113.8   
 4172 8331 -5.321 -2076.9   
 4172 8330 -8.529 -2046.6   
 4172 8325 -7.337 -1993.8   
 4172 8322 -5.563 -1984.1   
 4172 8321-10.434 -1969.3   
 4172 8320-10.262 -1947.4   
 4172 8318 -9.916 -1942.1   
 4172 8313 -7.153 -1912.3   
 4172 8309 -1.674 -1908.9   
 4172 8310 -3.334 -1908.5   
 4172 8304 -7.961 -1892.6   
 4172 8305 -4.972 -1892.6   
 4172 8300 -8.014 -1879.7   
 4172 8292 -7.784 -1857.8   
 4172 8293 -6.948 -1822.0   
 4172 8580 -7.001 1837.4    
 4172 8578 -6.370 1840.6    
 4172 8574 -6.766 1847.3    
 4172 8572 -6.864 1850.7    
 4172 8569 -8.889 1858.6    
 4172 8568 -5.698 1859.3    
 4172 8566 -8.067 1867.7    
 4172 8564 -6.022 1882.6    
 4172 8563 -7.540 1884.2    
 4172 8560 -8.092 1888.1    
 4172 8308 -5.118 1896.8    
 4172 8554 -1.131 1910.5    
 4172 8553 -6.458 1920.7    
 4172 8552 -7.108 1921.9    
 4172 8551 -7.962 1922.6    
 4172 8549 -2.388 1940.5    
 4172 8548 -2.502 1940.6    
 4172 8547 -2.651 1940.6    
 4172 8545 -9.459 1949.8    
 4172 8542 -8.207 1958.5    
 4172 8541 -9.123 1962.7    
 4172 8536 -6.563 1975.2    
 4172 8535 -5.871 1977.9    
 4172 8532 -4.620 1991.6    
 4172 8531 -2.755 1992.2    
 4172 8324 -2.627 1992.6    
 4172 8527 -9.110 1997.7    
 4172 8525 -7.234 2006.5    
 4172 8524 -7.362 2006.9    
 4172 8520 -9.020 2014.6    
 4172 8329 -7.668 2015.6    
 4172 8512 -9.245 2021.4    
 4172 8510 -8.617 2027.3    
 4172 8507 -9.356 2055.4    
 4172 8506 -8.534 2058.6    
 4172 8505 -8.132 2063.0    
 4172 8500 -6.454 2071.8    
 4172 8498 -6.684 2073.3    
 4172 8495 -6.888 2082.0    
 4172 8493 -7.870 2083.8    
 4172 8489 -6.483 2088.5    
 4172 8483 -2.487 2094.9    
 4172 8482 -2.597 2095.4    
 4172 8481 -2.744 2095.9    
 4172 8477 -8.634 2098.4    
 4172 8468 -8.659 2118.4    
 4172 8467 -9.133 2121.3    
 4172 8459 -7.522 2128.5    
 4172 8457 -6.857 2132.5    
 4173 8578 -2.805 2139.0    
 4173 8576 -3.617 2142.5    
 4173 8575 -3.716 2145.0    
 4173 8574 -2.938 2148.0    
 4174 8575 -1.773 2152.3    
 4175 8576 -1.844 2152.6    
 4173 8572 -2.394 2152.7    
 4176 8578 -2.350 2154.4    
 4175 8575 -1.863 2155.1    
 4173 8571 -2.509 2155.9    
 4177 8580 -1.745 2157.7    
 4176 8576 -2.002 2158.0    
 4178 8582 -1.689 2162.5    
 4174 8571 -1.767 2163.3    
 4176 8574 -1.940 2163.6    
 4175 8571 -2.184 2166.1    
 4178 8580 -2.537 2167.7    
 4176 8572 -2.640 2168.3    
 4177 8574 -2.409 2171.5    
 4176 8571 -2.126 2171.6    
 4178 8578 -2.634 2172.2    
 4173 8566 -3.249 2175.7    
 4177 8572 -2.075 2176.2    
 4178 8574 -3.195 2181.5    
 4178 8573 -4.134 2184.1    
 4175 8566 -2.286 2186.0    
 4176 8567 -2.501 2186.9    
 4177 8568 -2.567 2188.1    
 4176 8566 -2.948 2191.6    
 4177 8567 -2.967 2194.9    
 4178 8568 -3.265 2198.3    
 4177 8566 -3.883 2199.7    
 4178 8567 -3.547 2205.2    
 4176 8563 -3.727 2214.3    
 4177 8564 -3.435 2220.4    
 4177 8563 -5.004 2222.6    
 4173 8554 -3.556 2234.1    
 4175 8551 -2.746 2261.7    
 4175 8550 -2.970 2262.3    
 4176 8552 -2.893 2266.7    
 4176 8551 -3.053 2267.6    
 4178 8554 -5.198 2270.3    
 4177 8553 -3.130 2273.6    
 4177 8552 -2.720 2275.3    
 4177 8551 -2.974 2276.3    
 4178 8553 -2.452 2284.7    
 4178 8552 -3.161 2286.4    
 4174 8544 -3.054 2298.3    
 4175 8545 -3.573 2299.4    
 4175 8543 -3.177 2305.2    
 4176 8544 -3.544 2307.7    
 4172 8407 -6.675 2318.1    
 4178 8546 -6.144 2319.8    
 4175 8540 -5.034 2320.6    
 4173 8536 -5.352 2323.0    
 4177 8542 -4.806 2326.8    
 4174 8539 -1.897 2329.6    
 4175 8539 -3.326 2332.9    
 4175 8538 -2.382 2333.0    
 4175 8537 -2.066 2333.3    
 4176 8539 -2.245 2339.3    
 4176 8537 -2.756 2339.7    
 4176 8536 -2.108 2341.2    
 4177 8537 -2.199 2348.9    
 4177 8536 -2.317 2350.4    
 4177 8535 -2.117 2354.3    
 4174 8529 -2.664 2360.3    
 4178 8536 -2.225 2362.2    
 4172 8396 -1.844 2364.7    
 4172 8395 -1.954 2365.9    
 4178 8535 -1.881 2366.1    
 4172 8393 -2.100 2366.8    
 4173 8524 -2.294 2367.9    
 4176 8528 -2.698 2370.4    
 4176 8527 -2.460 2372.9    
 4177 8532 -2.384 2373.7    
 4177 8528 -2.637 2379.8    
 4173 8329 -2.264 2380.0    
 4173 8518 -2.569 2380.5    
 4177 8527 -3.126 2382.4    
 4178 8533 -1.993 2383.3    
 4178 8532 -2.234 2385.7    
 4176 8524 -2.467 2386.8    
 4174 8518 -1.521 2389.4    
 4175 8329 -2.105 2392.4    
 4175 8518 -1.645 2392.9    
 4176 8522 -3.505 2396.0    
 4177 8524 -1.797 2396.4    
 4176 8329 -1.686 2399.1    
 4176 8518 -2.006 2399.6    
 4177 8520 -3.277 2407.4    
 4178 8524 -1.445 2408.6    
 4177 8329 -1.690 2408.8    
 4177 8517 -4.340 2410.2    
 4177 8515 -4.963 2413.3    
 4172 8386 -6.211 2414.2    
 4176 8510 -4.480 2415.7    
 4177 8512 -4.094 2417.1    
 4178 8522 -4.397 2418.1    
 4178 8520 -3.807 2419.8    
 4178 8516 -4.110 2424.7    
 4175 8509 -3.332 2425.5    
 4178 8515 -4.365 2425.7    
 4178 8512 -4.593 2429.6    
 4176 8509 -5.042 2432.4    
 4174 8508 -3.087 2433.0    
 4172 8380 -5.594 2435.7    
 4175 8508 -3.735 2436.6    
 4172 8379 -5.990 2439.3    
 4177 8509 -4.124 2442.3    
 4173 8505 -3.535 2446.3    
 4176 8507 -4.020 2455.7    
 4173 8500 -3.238 2458.7    
 4175 8505 -2.846 2459.4    
 4173 8498 -3.414 2460.8    
 4176 8505 -2.758 2466.5    
 4174 8497 -1.653 2470.9    
 4175 8499 -2.771 2473.5    
 4175 8498 -2.025 2474.1    
 4175 8497 -2.108 2474.5    
 4177 8505 -3.297 2476.7    
 4176 8500 -2.532 2479.1    
 4176 8498 -2.389 2481.2    
 4173 8488 -4.238 2485.5    
 4173 8485 -4.254 2487.2    
 4177 8500 -2.925 2489.5    
 4174 8490 -1.042 2491.3    
 4175 8491 -1.114 2492.6    
 4175 8490 -1.725 2495.1    
 4176 8493 -1.063 2496.3    
 4176 8491 -1.983 2499.8    
 4175 8486 -1.811 2500.7    
 4175 8485 -2.233 2500.8    
 4175 8484 -2.228 2501.7    
 4177 8495 -1.613 2504.3    
 4177 8493 -2.790 2506.8    
 4176 8485 -1.712 2508.1    
 4176 8484 -1.685 2509.0    
 4175 8475 -2.479 2510.5    
 4177 8489 -1.177 2513.6    
 4177 8488 -1.436 2516.9    
 4178 8495 -1.392 2517.7    
 4177 8485 -1.741 2518.7    
 4178 8494 -1.012 2519.5    
 4178 8489 -2.233 2527.1    
 4177 8477 -2.468 2528.0    
 4177 8476 -2.869 2528.3    
 4178 8488 -2.006 2530.4    
 4173 8461 -2.939 2535.5    
 4173 8459 -2.743 2538.9    
 4178 8478 -2.423 2541.3    
 4173 8457 -2.592 2544.7    
 4174 8461 -1.300 2545.6    
 4175 8461 -1.476 2549.5    
 4175 8459 -1.889 2553.1    
 4177 8468 -3.140 2557.1    
 4176 8461 -1.953 2557.2    
 4176 8459 -1.587 2560.7    
 4176 8457 -2.483 2566.6    
 4174 8452 -2.347 2568.1    
 4178 8470 -3.325 2568.6    
 4177 8459 -1.709 2571.7    
 4175 8452 -2.884 2572.1    
 4175 8451 -2.469 2572.1    
 4177 8458 -3.079 2575.9    
 4177 8457 -1.862 2577.7    
 4176 8453 -2.521 2579.2    
 4176 8451 -2.884 2579.9    
 4178 8465 -3.276 2580.0    
 4178 8460 -2.601 2584.7    
 4177 8455 -2.528 2588.2    
 4177 8453 -2.703 2590.4    
 4178 8457 -1.566 2591.8    
 4174 8447 -4.067 2593.4    
 4175 8448 -3.438 2594.0    
 4173 8445 -4.808 2595.5    
 4175 8447 -3.429 2597.5    
 4176 8449 -4.227 2600.6    
 4176 8448 -3.303 2601.9    
 4178 8455 -2.888 2602.5    
 4178 8454 -2.296 2603.6    
 4176 8447 -2.993 2605.4    
 4177 8450 -2.831 2608.3    
 4177 8449 -3.821 2612.0    
 4175 8444 -3.371 2612.2    
 4175 8443 -2.977 2612.5    
 4177 8448 -2.923 2613.3    
 4176 8446 -3.028 2613.8    
 4176 8445 -3.041 2618.3    
 4175 8440 -3.982 2620.1    
 4178 8450 -3.631 2622.9    
 4177 8446 -3.651 2625.3    
 4178 8449 -3.180 2626.6    
 4176 8440 -4.453 2628.1    
 4177 8445 -3.815 2629.8    
 4174 8436 -2.847 2633.0    
 4175 8438 -3.289 2636.1    
 4175 8437 -3.337 2636.9    
 4175 8436 -3.834 2637.1    
 4178 8446 -2.922 2640.0    
 4176 8438 -3.545 2644.2    
 4176 8436 -3.725 2645.3    
 4178 8442 -3.852 2648.2    
 4173 8426 -3.841 2654.4    
 4177 8438 -5.583 2656.0    
 4173 8423 -1.684 2664.5    
 4174 8424 -1.945 2669.4    
 4175 8425 -2.130 2672.0    
 4175 8424 -2.360 2673.7    
 4176 8426 -2.025 2678.2    
 4176 8425 -2.344 2680.3    
 4173 8422 -1.844 2681.5    
 4177 8427 -1.952 2688.0    
 4176 8423 -2.390 2688.4    
 4177 8426 -2.582 2690.3    
 4173 8420 -1.907 2696.5    
 4175 8422 -1.757 2697.2    
 4177 8423 -1.560 2700.6    
 4178 8428 -1.779 2702.0    
 4178 8427 -2.509 2703.5    
 4176 8422 -1.409 2705.7    
 4174 8420 -1.127 2708.1    
 4175 8420 -1.262 2712.5    
 4178 8423 -1.181 2716.2    
 4173 8414 -7.677 2718.1    
 4177 8422 -1.410 2718.1    
 4176 8420 -1.627 2721.1    
 4173 8411 -0.930 2726.5    
 4173 8409 -1.089 2731.9    
 4173 8408 -1.352 2736.5    
 4177 8417 -3.153 2743.5    
 4175 8409 -1.771 2748.3    
 4174 8408 -1.173 2748.3    
 4176 8411 -2.454 2751.6    
 4175 8408 -1.259 2752.9    
 4178 8418 -2.821 2755.2    
 4176 8409 -1.327 2757.1    
 4176 8408 -1.517 2761.7    
 4177 8411 -1.625 2764.4    
 4177 8409 -1.167 2769.9    
 4178 8414 -4.923 2771.9    
 4178 8413 -6.533 2776.9    
 4178 8411 -0.998 2780.7    
 4178 8410 -7.641 2781.7    
 4173 8407 -4.313 2813.6    
 4175 8407 -3.649 2830.9    
 4176 8407 -3.388 2840.3    
 4173 8405 -4.513 2851.8    
 4177 8407 -3.759 2853.9    
 4173 8401 -9.976 2860.8    
 4173 8400-10.301 2862.7    
 4177 8406 -1.450 2871.6    
 4176 8405 -1.104 2879.3    
 4173 8397 -6.126 2881.0    
 4175 8399 -0.881 2887.0    
 4178 8406 -0.676 2889.3    
 4177 8405 -0.845 2893.3    
 4174 8397 -0.598 2894.2    
 4176 8399 -1.113 2896.8    
 4175 8397 -1.570 2899.2    
 4175 8392 -1.007 2905.5    
 4176 8397 -0.971 2909.1    
 4177 8399 -1.064 2910.9    
 4178 8405 -1.330 2911.1    
 4176 8393 -4.298 2913.7    
 4178 8403 -3.649 2916.2    
 4178 8402 -4.123 2918.2    
 4177 8396 -4.934 2924.9    
 4177 8393 -3.965 2928.0    
 4176 8389 -4.557 2931.9    
 4180 8582 -1.462 2938.8    
 4183 8582 -2.471 2939.2    
 4173 8387 -3.592 2941.9    
 4178 8396 -4.136 2943.1    
 4178 8395 -3.589 2945.0    
 4182 8580 -2.208 2948.8    
 4183 8580 -1.497 2948.9    
 4178 8391 -3.739 2953.7    
 4172 8367 -4.482 2956.3    
 4173 8386 -3.313 2956.3    
 4181 8578 -2.665 2957.0    
 4182 8578 -2.067 2957.3    
 4181 8576 -1.528 2963.7    
 4177 8388 -1.274 2967.6    
 4179 8575 -1.510 2968.2    
 4176 8387 -1.065 2971.1    
 4181 8574 -2.281 2974.3    
 4182 8574 -1.701 2974.5    
 4175 8386 -0.965 2975.5    
 4174 8384 -0.779 2980.8    
 4176 8386 -1.401 2985.8    
 4177 8387 -0.987 2986.0    
 4178 8388 -0.679 2986.5    
 4173 8380 -1.179 2988.6    
 4175 8383 -1.192 2991.9    
 4173 8379 -1.289 2994.1    
 4176 8384 -1.101 2996.6    
 4173 8377 -1.479 2998.8    
 4177 8386 -1.130 3000.9    
 4178 8387 -1.314 3005.1    
 4183 8568 -2.675 3005.8    
 4175 8378 -0.270 3014.8    
 4176 8381 -0.264 3014.9    
 4174 8376 -0.100 3015.2    
 4177 8382 -0.233 3017.6    
 4175 8376 -0.608 3020.7    
 4178 8385 -0.195 3021.6    
 4176 8379 -1.056 3024.3    
 4176 8378 -0.699 3025.4    
 4177 8381 -0.853 3030.2    
 4177 8380 -1.256 3034.2    
 4178 8382 -1.122 3037.0    
 4177 8379 -1.282 3039.8    
 4178 8381 -2.257 3049.9    
 4178 8380 -1.067 3053.9    
 4180 8565 -1.828 3061.6    
 4183 8565 -2.879 3062.1    
 4182 8564 -2.665 3067.2    
 4183 8564 -1.906 3067.2    
 4181 8563 -2.593 3071.0    
 4182 8563 -1.985 3071.3    
 4179 8562 -2.636 3074.1    
 4181 8562 -2.046 3074.5    
 4179 8561 -2.069 3076.6    
 4184 8578 -1.667 3077.2    
 4185 8578 -1.731 3077.8    
 4184 8576 -3.002 3084.4    
 4185 8576 -3.446 3085.1    
 4186 8576 -2.578 3086.0    
 4185 8575 -2.884 3090.3    
 4186 8575 -3.174 3091.1    
 4184 8574 -1.786 3095.9    
 4185 8574 -1.872 3096.5    
 4184 8572 -1.888 3105.5    
 4186 8572 -1.377 3107.1    
 4185 8571 -1.773 3112.9    
 4186 8571 -1.886 3113.8    
 4184 8570 -4.059 3115.7    
 4184 8568 -2.962 3129.8    
 4184 8567 -1.720 3143.8    
 4185 8567 -2.333 3144.5    
 4184 8566 -2.450 3153.6    
 4185 8566 -2.539 3154.3    
 4186 8566 -2.317 3155.2    
 4183 8553 -3.804 3169.6    
 4181 8552 -4.436 3172.6    
 4182 8552 -3.763 3172.9    
 4181 8551 -3.931 3174.5    
 4173 8375 -3.454 3192.1    
 4184 8564 -3.674 3196.3    
 4184 8563 -3.874 3200.8    
 4186 8561 -4.348 3208.9    
 4173 8374 -4.234 3210.6    
 4172 8360 -7.367 3213.9    
 8335 4307 -4.907 3217.2    
 4176 8375 -3.501 3226.6    
 4175 8374 -3.075 3233.2    
 4180 8546 -5.624 3237.2    
 4174 8373 -2.651 3240.9    
 4177 8375 -3.272 3244.1    
 4176 8374 -3.062 3245.5    
 4187 8571 -3.004 3245.9    
 4175 8373 -2.981 3247.3    
 4188 8576 -4.361 3252.1    
 4176 8373 -4.196 3259.6    
 4178 8375 -3.738 3266.6    
 4188 8572 -3.288 3275.6    
 4190 8582 -3.549 3279.8    
 4179 8540 -4.821 3291.5    
 4184 8553 -2.310 3307.7    
 8335 4302 -1.524 3309.5    
 4185 8552 -2.423 3312.1    
 4185 8551 -2.737 3314.2    
 8335 4300 -1.544 3318.1    
 4197 8580 -3.021 3318.9    
 4194 8578 -1.402 3327.2    
 8335 4299 -1.631 3329.4    
 4190 8573 -1.736 3329.9    
 8334 4296 -1.907 3332.6    
 4189 8570 -1.471 3333.1    
 8334 4295 -1.146 3333.6    
 8333 4293 -1.084 3334.7    
 8333 4290 -1.932 3342.3    
 8334 4292 -1.875 3344.3    
 8333 4289 -1.295 3344.6    
 8335 4296 -2.136 3345.1    
 8335 4295 -1.653 3346.1    
 4190 8570 -2.250 3346.7    
 4194 8574 -1.543 3349.1    
 4197 8574 -2.908 3351.5    
 4172 8356 -4.106 3352.0    
 8334 4289 -1.644 3353.8    
 8335 4293 -1.786 3356.4    
 4180 8533 -1.818 3362.2    
 4196 8572 -2.286 3362.4    
 4183 8533 -2.210 3362.7    
 4197 8572 -1.577 3362.8    
 4191 8569 -2.133 3364.7    
 4182 8532 -2.138 3367.5    
 4183 8532 -1.968 3367.5    
 4181 8530 -2.767 3370.2    
 4196 8571 -2.074 3370.2    
 4179 8529 -2.591 3378.8    
 4172 8355 -4.296 3379.2    
 4181 8528 -2.332 3379.5    
 4182 8528 -2.333 3379.8    
 4179 8527 -2.180 3384.2    
 4181 8527 -2.178 3384.6    
 4179 8526 -2.043 3388.7    
 4194 8568 -1.969 3388.8    
 4197 8568 -2.395 3391.3    
 4191 8566 -2.935 3394.8    
 4184 8545 -3.245 3395.1    
 4185 8545 -3.274 3395.9    
 4199 8578 -3.561 3396.8    
 4186 8544 -3.168 3401.6    
 4194 8567 -2.377 3405.2    
 4196 8567 -2.081 3407.2    
 4197 8567 -1.862 3407.7    
 4195 8566 -2.018 3417.3    
 4196 8566 -2.220 3418.8    
 4184 8542 -2.876 3421.5    
 4179 8523 -1.817 3431.3    
 4181 8522 -1.572 3432.0    
 4182 8522 -2.076 3432.3    
 4180 8521 -0.776 3433.6    
 4183 8521 -1.754 3434.1    
 4180 8519 -2.116 3435.7    
 4182 8519 -1.591 3436.2    
 4183 8519 -0.904 3436.2    
 4198 8570 -1.860 3436.2    
 4181 8517 -1.865 3441.1    
 4182 8517 -1.336 3441.4    
 4183 8517 -2.104 3441.5    
 4201 8573 -2.044 3442.6    
 4199 8570 -1.680 3443.7    
 4189 8560 -1.347 3443.8    
 4180 8516 -2.454 3445.1    
 4182 8516 -2.219 3445.6    
 4183 8516 -1.560 3445.6    
 4179 8515 -1.836 3447.0    
 4181 8515 -1.257 3447.4    
 4182 8515 -2.197 3447.8    
 4179 8513 -0.846 3453.3    
 4181 8513 -1.800 3453.7    
 4181 8512 -1.592 3455.3    
 4182 8512 -1.031 3455.6    
 4183 8512 -1.977 3455.6    
 4203 8573 -1.606 3459.1    
 4194 8565 -1.285 3460.4    
 4200 8569 -1.645 3463.5    
 4179 8511 -1.827 3464.8    
 4181 8511 -1.223 3465.2    
 4182 8511 -2.012 3465.6    
 4194 8564 -2.069 3467.0    
 4190 8558 -1.397 3467.7    
 4197 8564 -1.343 3469.6    
 4185 8537 -1.698 3470.4    
 4186 8539 -1.576 3470.5    
 4186 8537 -1.601 3471.5    
 4184 8536 -2.004 3472.8    
 4189 8308 -2.006 3472.9    
 4185 8536 -1.368 3473.6    
 4196 8563 -1.432 3474.4    
 4197 8563 -1.820 3474.9    
 4195 8562 -1.426 3477.2    
 4203 8570 -1.906 3477.3    
 4196 8562 -1.743 3478.8    
 4193 8561 -1.239 3479.1    
 4195 8561 -1.674 3480.3    
 4184 8535 -1.215 3481.3    
 4192 8559 -1.429 3481.5    
 4202 8569 -2.155 3483.5    
 4189 8555 -1.968 3488.4    
 4203 8569 -2.719 3492.2    
 4190 8556 -1.693 3495.0    
 4190 8555 -3.400 3503.4    
 4181 8509 -3.169 3507.0    
 4192 8557 -1.713 3510.5    
 4184 8532 -2.423 3523.9    
 8340 4302 -2.730 3526.8    
 4185 8530 -2.842 3528.0    
 4179 8508 -2.829 3529.8    
 8339 4299 -2.603 3530.1    
 8338 4296 -1.944 3533.1    
 8337 4292 -1.519 3536.4    
 8336 4290 -1.061 3539.5    
 8337 4290 -1.589 3544.5    
 8338 4292 -1.331 3546.3    
 8339 4296 -1.157 3547.8    
 8336 4287 -0.247 3547.9    
 8337 4288 -0.429 3549.2    
 8340 4299 -1.057 3549.3    
 8341 4302 -1.477 3550.4    
 8342 4303 -0.874 3550.6    
 8338 4291 -0.441 3552.7    
 8337 4287 -0.738 3552.9    
 8339 4294 -0.425 3558.6    
 8338 4288 -0.823 3559.1    
 8341 4300 -1.018 3560.3    
 8339 4293 -1.752 3560.5    
 8339 4292 -1.674 3561.0    
 8340 4297 -0.394 3566.1    
 8340 4296 -1.785 3567.2    
 8339 4291 -0.979 3567.5    
 8340 4295 -1.746 3568.4    
 4184 8525 -1.029 3572.7    
 4185 8525 -0.854 3573.6    
 4184 8524 -1.098 3574.0    
 8341 4298 -0.368 3574.3    
 4186 8525 -0.704 3574.8    
 4185 8524 -0.958 3574.9    
 8340 4294 -1.158 3578.2    
 4172 8353 -0.361 3578.7    
 8342 4302 -1.465 3578.8    
 4178 8372 -3.392 3582.6    
 8342 4301 -0.341 3584.3    
 4201 8559 -2.305 3586.2    
 8340 4291 -2.211 3587.2    
 8341 4297 -1.348 3590.3    
 4172 8351 -0.468 3593.5    
 4184 8329 -1.100 3601.7    
 8342 4298 -1.682 3603.0    
 4185 8518 -1.252 3603.7    
 4186 8329 -0.967 3603.8    
 4186 8518 -1.316 3604.9    
 4172 8350 -0.610 3605.3    
 4181 8498 -1.528 3609.5    
 4179 8497 -1.315 3610.0    
 4172 8349 -2.275 3615.6    
 8342 4297 -3.156 3619.3    
 4201 8556 -3.252 3619.3    
 4180 8496 -3.626 3619.5    
 4202 8308 -2.645 3620.4    
 4172 8348 -2.574 3635.3    
 4182 8495 -1.549 3636.6    
 4183 8495 -0.875 3636.6    
 4180 8494 -0.608 3639.8    
 4183 8494 -1.620 3640.4    
 4181 8493 -1.451 3641.5    
 4182 8493 -0.836 3641.8    
 4179 8491 -1.436 3648.5    
 4181 8491 -0.853 3649.0    
 4172 8347 -3.230 3651.0    
 4179 8490 -0.863 3653.9    
 4182 8489 -1.834 3656.2    
 4183 8489 -1.032 3656.3    
 4181 8488 -1.807 3662.8    
 4182 8488 -1.317 3663.2    
 4179 8485 -2.235 3666.2    
 4181 8485 -1.768 3666.6    
 4179 8484 -2.369 3668.0    
 4191 8545 -1.235 3676.3    
 4191 8544 -1.568 3681.7    
 4180 8478 -1.979 3685.5    
 4182 8477 -2.656 3686.8    
 4183 8477 -1.949 3686.8    
 4181 8476 -2.478 3686.9    
 4179 8475 -2.441 3687.1    
 4182 8476 -1.929 3687.3    
 4179 8473 -1.842 3687.3    
 4181 8475 -1.889 3687.5    
 4182 8472 -3.875 3689.3    
 8347 4306 -3.995 3689.8    
 4205 8576 -3.918 3692.2    
 8348 4307 -3.711 3692.7    
 4180 8471 -3.882 3693.6    
 4182 8471 -3.925 3694.1    
 4183 8471 -4.282 3694.1    
 4206 8576 -3.450 3698.6    
 4201 8553 -4.480 3699.1    
 4205 8575 -3.526 3699.6    
 4189 8541 -4.288 3700.4    
 4195 8545 -2.745 3702.7    
 4196 8545 -3.461 3704.5    
 4197 8545 -2.874 3705.0    
 8348 4306 -3.803 3706.0    
 4193 8544 -1.922 3706.8    
 4195 8544 -3.017 3708.1    
 4196 8544 -3.059 3709.9    
 4187 8529 -2.313 3710.6    
 8349 4307 -3.964 3713.2    
 4206 8574 -3.401 3715.1    
 4195 8543 -1.977 3717.8    
 4191 8541 -3.223 3722.3    
 4187 8526 -2.751 3722.6    
 4172 8344 -2.693 3730.8    
 4172 8343 -2.613 3732.0    
 4194 8542 -2.572 3733.4    
 4197 8542 -2.710 3736.4    
 4180 8470 -2.047 3743.0    
 4182 8470 -1.906 3743.6    
 4183 8470 -1.055 3743.7    
 4180 8469 -0.728 3743.9    
 4183 8469 -1.770 3744.5    
 4181 8468 -1.722 3748.6    
 4182 8468 -1.009 3749.0    
 4183 8468 -1.745 3749.0    
 4184 8505 -1.889 3755.8    
 4179 8467 -1.799 3757.2    
 4181 8467 -1.010 3757.7    
 4182 8467 -1.684 3758.0    
 4206 8569 -2.077 3760.9    
 4180 8465 -2.596 3767.4    
 4181 8464 -1.839 3767.7    
 4182 8465 -1.825 3768.0    
 4183 8465 -1.253 3768.0    
 4182 8464 -1.672 3768.1    
 4179 8463 -1.771 3768.1    
 4179 8462 -0.862 3768.2    
 4181 8463 -1.829 3768.6    
 4181 8462 -1.702 3768.7    
 4180 8460 -2.509 3777.3    
 4183 8460 -3.306 3777.9    
 8345 4290 -2.627 3784.8    
 4184 8500 -2.438 3785.2    
 8343 4289 -2.985 3785.7    
 4185 8500 -2.388 3786.2    
 8344 4289 -2.893 3787.0    
 4193 8539 -0.471 3788.9    
 4175 8369 -3.350 3789.7    
 4195 8539 -1.352 3790.2    
 4195 8538 -0.932 3790.4    
 4195 8537 -0.750 3791.4    
 4196 8539 -0.901 3792.1    
 4196 8537 -0.891 3793.3    
 4197 8537 -1.023 3793.9    
 4194 8536 -1.333 3794.6    
 4196 8536 -1.043 3797.1    
 4197 8536 -0.624 3797.7    
 4206 8566 -1.650 3798.5    
 4194 8535 -0.478 3804.8    
 4197 8535 -1.770 3807.9    
 4207 8569 -2.071 3814.6    
 4182 8455 -2.233 3816.2    
 4183 8455 -2.214 3816.2    
 4180 8454 -2.035 3817.8    
 4183 8454 -2.189 3818.5    
 4184 8495 -0.779 3819.6    
 4181 8453 -2.313 3820.5    
 4182 8453 -2.213 3820.9    
 4174 8368 -2.482 3823.5    
 4184 8493 -1.465 3825.4    
 4185 8493 -1.183 3826.4    
 8352 4303 -0.552 3830.0    
 4177 8369 -3.317 3831.0    
 4185 8491 -1.673 3834.7    
 4186 8491 -1.814 3836.1    
 8349 4302 -1.655 3836.7    
 4184 8489 -0.619 3841.3    
 8348 4299 -0.666 3841.3    
 8347 4296 -0.730 3844.7    
 8346 4292 -0.835 3848.1    
 8349 4300 -0.555 3848.3    
 4184 8488 -1.058 3849.0    
 4194 8533 -0.553 3849.4    
 4176 8368 -2.816 3849.5    
 4185 8488 -0.699 3850.0    
 4175 8366 -2.630 3852.2    
 4184 8485 -1.734 3853.2    
 4185 8485 -0.792 3854.2    
 4186 8486 -1.010 3855.3    
 4186 8485 -0.830 3855.6    
 4185 8484 -1.301 3856.3    
 8346 4290 -0.617 3857.6    
 4186 8484 -0.661 3857.6    
 4197 8532 -0.579 3858.9    
 8347 4293 -0.963 3859.6    
 8347 4292 -0.864 3860.3    
 8346 4289 -0.822 3860.7    
 8348 4296 -1.114 3862.2    
 8352 4302 -0.678 3862.8    
 8349 4299 -1.557 3863.4    
 8348 4295 -1.116 3863.6    
 8347 4291 -1.629 3867.9    
 4193 8529 -1.002 3870.6    
 4195 8529 -1.512 3872.0    
 8347 4289 -1.781 3872.9    
 8352 4300 -1.763 3874.5    
 4196 8528 -0.776 3874.5    
 8348 4294 -1.520 3875.1    
 4197 8528 -1.571 3875.1    
 8348 4293 -1.381 3877.3    
 4195 8527 -0.659 3879.2    
 8353 4302 -1.210 3879.3    
 4196 8527 -1.194 3881.2    
 4176 8365 -1.958 3883.3    
 8349 4297 -1.664 3883.3    
 4193 8526 -0.560 3883.6    
 4195 8526 -1.117 3885.1    
 4175 8364 -1.814 3885.2    
 8349 4295 -1.210 3886.1    
 4177 8367 -2.217 3886.8    
 8352 4299 -1.692 3889.8    
 8352 4298 -1.871 3891.0    
 8353 4300 -1.567 3891.1    
 8335 4281 -2.338 3893.1    
 4174 8363 -1.628 3894.0    
 8350 4296 -2.319 3896.6    
 4182 8446 -3.078 3897.4    
 8349 4293 -2.570 3899.9    
 4176 8364 -2.200 3902.9    
 4175 8363 -2.711 3903.2    
 8353 4299 -1.371 3906.6    
 4177 8365 -1.884 3908.8    
 8350 4293 -0.795 3911.9    
 8351 4295 -0.883 3912.0    
 8352 4295 -1.723 3912.8    
 4194 8524 -1.085 3915.8    
 4175 8362 -2.181 3916.2    
 4197 8525 -2.050 3917.6    
 4197 8524 -1.627 3919.1    
 4178 8367 -1.648 3919.2    
 4176 8363 -2.100 3921.0    
 8350 4290 -1.736 3922.5    
 8350 4289 -0.970 3925.7    
 8351 4292 -1.552 3926.7    
 8353 4296 -1.721 3928.2    
 4177 8364 -2.131 3928.6    
 8353 4295 -1.302 3929.7    
 8351 4289 -1.232 3939.8    
 4207 8560 -1.828 3941.1    
 4178 8365 -2.332 3941.5    
 4196 8522 -2.287 3943.6    
 8353 4293 -1.347 3943.8    
 4197 8522 -2.218 3944.2    
 4194 8520 -2.247 3945.5    
 4192 8516 -2.927 3945.6    
 4193 8518 -1.226 3949.6    
 4195 8329 -1.660 3949.7    
 4195 8518 -1.373 3951.1    
 4196 8329 -1.511 3951.8    
 4197 8329 -1.448 3952.4    
 4194 8517 -2.619 3952.9    
 4210 8570 -2.241 3952.9    
 4196 8518 -1.731 3953.2    
 4197 8517 -2.056 3956.3    
 4180 8439 -0.426 3963.7    
 4180 8435 -1.673 3969.1    
 4183 8435 -0.484 3969.7    
 4185 8461 -1.304 3971.2    
 4182 8434 -0.526 3976.7    
 4183 8434 -1.469 3976.7    
 4184 8459 -1.635 3978.7    
 4186 8459 -1.221 3981.2    
 4181 8433 -0.538 3983.9    
 4182 8433 -1.410 3984.3    
 4179 8432 -0.406 3991.1    
 4181 8432 -1.387 3991.7    
 4184 8457 -1.234 3992.8    
 4208 8308 -1.946 3996.3    
 4196 8510 -3.013 3997.1    
 4184 8456 -3.745 3997.9    
 8354 4305 -2.874 4004.9    
 4188 8505 -3.254 4007.4    
 4199 8524 -3.866 4012.5    
 4210 8566 -2.311 4014.2    
 4209 8308 -2.246 4014.4    
 8355 4306 -2.448 4016.3    
 4184 8455 -2.888 4018.2    
 8354 4304 -2.889 4018.8    
 4181 8431 -1.199 4025.0    
 4182 8431 -2.065 4025.4    
 4182 8430 -1.312 4026.2    
 4183 8430 -2.239 4026.2    
 4183 8429 -1.548 4027.1    
 4180 8428 -1.989 4033.3    
 4182 8427 -2.697 4037.3    
 4183 8427 -2.034 4037.3    
 4199 8522 -3.011 4038.8    
 8356 4307 -2.192 4039.6    
 4198 8517 -2.698 4041.0    
 4181 8426 -2.585 4041.8    
 4182 8426 -2.089 4042.2    
 4179 8425 -2.607 4046.2    
 4181 8425 -2.127 4046.8    
 4179 8424 -2.124 4050.0    
 4199 8517 -2.745 4051.5    
 8356 4306 -2.336 4055.4    
 4199 8516 -2.741 4057.2    
 4189 8506 -2.331 4059.2    
 4201 8520 -2.498 4066.9    
 4184 8450 -2.756 4066.9    
 4200 8515 -2.859 4067.3    
 4201 8519 -3.127 4067.4    
 8356 4305 -3.010 4070.8    
 4199 8512 -2.960 4071.1    
 4202 8523 -2.625 4072.8    
 4198 8511 -3.366 4074.4    
 4201 8517 -3.150 4074.8    
 4184 8449 -3.210 4075.9    
 4185 8449 -3.132 4077.1    
 4190 8506 -3.566 4079.5    
 4185 8448 -2.356 4080.2    
 4201 8516 -2.799 4080.6    
 4186 8448 -2.215 4081.7    
 4198 8510 -3.376 4084.3    
 4203 8522 -2.615 4085.0    
 4202 8517 -2.710 4086.0    
 4185 8447 -3.060 4088.8    
 4186 8447 -2.099 4090.3    
 8333 4273 -1.787 4097.6    
 8333 4272 -1.573 4097.9    
 8333 4271 -1.623 4098.0    
 4190 8504 -2.360 4099.0    
 4189 8502 -2.354 4101.2    
 4189 8501 -1.823 4104.9    
 4185 8446 -2.149 4109.6    
 8334 4274 -1.468 4111.0    
 8334 4273 -1.589 4111.4    
 8334 4272 -2.016 4111.6    
 4190 8502 -1.764 4121.8    
 8343 4286 -2.105 4122.9    
 4192 8504 -1.716 4123.4    
 4180 8421 -2.476 4126.5    
 4183 8421 -3.087 4127.3    
 8335 4275 -1.259 4129.2    
 8335 4274 -1.794 4130.1    
 8335 4273 -2.538 4130.5    
 4198 8509 -2.840 4132.2    
 4195 8505 -3.727 4135.8    
 4184 8441 -4.541 4138.0    
 4191 8500 -4.097 4138.1    
 4196 8505 -3.356 4138.1    
 4197 8505 -3.278 4138.8    
 4185 8441 -3.715 4139.2    
 4203 8510 -2.950 4142.5    
 4192 8502 -2.918 4146.5    
 4204 8544 -2.438 4151.0    
 4182 8418 -3.320 4153.8    
 4183 8418 -2.381 4153.8    
 4206 8545 -2.575 4154.5    
 4206 8544 -2.839 4161.3    
 4181 8417 -3.667 4163.1    
 4182 8417 -2.437 4163.6    
 4183 8417 -3.909 4163.7    
 4180 8416 -3.177 4166.4    
 4192 8496 -1.956 4175.9    
 4202 8509 -2.869 4179.2    
 4200 8508 -2.550 4183.1    
 4190 8492 -2.104 4185.3    
 4191 8493 -2.717 4186.2    
 4183 8415 -3.131 4188.4    
 4189 8487 -2.084 4190.0    
 4181 8414 -2.546 4191.3    
 4198 8507 -1.880 4200.1    
 4182 8413 -3.253 4203.2    
 4179 8412 -2.674 4203.6    
 8354 4289 -2.183 4205.1    
 4192 8492 -2.899 4210.8    
 4199 8507 -2.157 4211.4    
 4190 8487 -2.831 4211.5    
 4194 8495 -1.913 4212.5    
 4198 8506 -2.613 4213.2    
 4181 8410 -3.535 4213.7    
 4194 8494 -1.719 4217.6    
 4189 8472 -2.519 4220.4    
 4196 8493 -1.629 4222.7    
 4199 8506 -2.642 4224.5    
 4189 8471 -2.093 4226.8    
 4190 8479 -2.791 4230.3    
 4195 8491 -1.617 4230.5    
 4196 8491 -2.319 4232.9    
 8358 4306 -2.317 4233.0    
 8355 4289 -2.549 4234.2    
 8359 4307 -2.467 4234.8    
 4193 8490 -1.478 4236.0    
 8357 4305 -2.192 4236.8    
 4195 8490 -2.059 4237.7    
 4194 8489 -2.479 4238.9    
 4190 8474 -2.048 4240.7    
 4197 8489 -1.632 4242.8    
 4194 8488 -2.185 4248.3    
 8358 4305 -1.829 4249.7    
 4201 8506 -2.204 4249.8    
 8359 4306 -1.750 4252.2    
 4172 8335 -0.893 4254.3    
 4192 8480 -1.989 4255.5    
 4197 8485 -2.107 4257.3    
 4196 8484 -2.246 4259.1    
 8360 4307 -1.560 4260.2    
 8335 4270 -1.522 4261.3    
 4203 8507 -1.960 4261.6    
 4198 8501 -1.899 4262.4    
 4215 8581 -0.709 4263.1    
 8359 4305 -1.779 4269.1    
 4199 8502 -1.904 4270.0    
 4201 8504 -1.735 4271.1    
 8334 4269 -1.646 4272.9    
 4172 8334 -1.020 4274.8    
 8360 4306 -1.789 4277.8    
 4215 8579 -2.101 4280.2    
 4217 8579 -0.721 4280.4    
 4172 8333 -1.181 4289.7    
 4207 8540 -1.403 4292.0    
 8361 4307 -1.937 4292.0    
 8335 4269 -1.981 4293.5    
 4184 8423 -1.679 4295.7    
 4217 8577 -2.083 4296.6    
 4218 8577 -0.718 4297.7    
 8334 4268 -1.725 4299.7    
 4208 8541 -1.403 4300.5    
 4209 8542 -1.385 4301.2    
 8333 4267 -1.673 4305.4    
 4189 8467 -1.997 4310.7    
 4202 8501 -2.027 4312.5    
 4188 8452 -2.295 4315.4    
 4188 8451 -2.180 4315.6    
 4222 8582 -2.393 4316.8    
 8333 4266 -1.707 4319.6    
 4223 8582 -1.504 4319.7    
 8334 4267 -2.124 4320.6    
 8335 4268 -2.682 4320.6    
 4190 8468 -1.939 4321.5    
 4203 8502 -2.077 4321.6    
 4189 8464 -2.770 4323.8    
 4189 8463 -1.342 4325.1    
 4202 8498 -2.149 4325.6    
 4203 8500 -2.072 4332.6    
 4175 8358 -1.504 4337.6    
 4222 8580 -1.573 4337.7    
 4206 8534 -1.189 4338.8    
 4176 8359 -1.482 4339.4    
 4174 8357 -1.342 4339.7    
 4184 8422 -1.941 4340.1    
 4217 8573 -1.751 4341.2    
 4192 8470 -1.677 4341.3    
 4186 8422 -2.086 4343.2    
 4177 8360 -1.428 4344.5    
 4205 8530 -1.234 4345.1    
 4190 8464 -1.371 4346.8    
 4191 8466 -2.268 4347.5    
 4175 8357 -1.843 4351.0    
 4178 8361 -1.370 4351.8    
 4221 8578 -1.867 4353.3    
 4206 8530 -1.531 4354.0    
 4204 8529 -1.242 4357.5    
 4176 8358 -1.918 4359.6    
 4205 8529 -1.554 4360.0    
 4213 8570 -1.064 4362.1    
 4187 8443 -1.759 4363.0    
 4201 8492 -2.731 4364.9    
 4219 8576 -2.064 4365.6    
 4220 8576 -1.852 4366.2    
 4221 8576 -2.375 4367.9    
 4197 8468 -2.487 4368.3    
 4218 8570 -1.642 4370.9    
 4177 8359 -2.055 4371.2    
 4176 8357 -2.962 4373.3    
 4204 8526 -1.395 4374.0    
 4192 8465 -1.519 4374.2    
 4190 8458 -2.822 4375.3    
 4219 8575 -1.761 4376.0    
 4220 8575 -2.395 4376.5    
 4205 8526 -1.855 4376.5    
 4188 8448 -2.267 4377.5    
 4206 8527 -2.614 4378.1    
 4196 8467 -2.504 4379.8    
 4185 8420 -2.138 4381.1    
 4178 8360 -2.330 4385.0    
 4213 8569 -2.712 4385.6    
 4199 8479 -2.937 4386.5    
 4198 8472 -2.772 4387.1    
 4192 8460 -2.249 4387.5    
 4220 8574 -2.401 4389.1    
 4214 8569 -1.356 4389.3    
 4194 8465 -2.246 4389.9    
 4221 8574 -2.231 4390.8    
 4177 8358 -3.147 4391.8    
 4195 8462 -2.592 4392.3    
 4201 8487 -3.231 4393.4    
 4222 8574 -2.090 4393.4    
 4197 8464 -2.566 4394.2    
 4196 8462 -2.929 4394.8    
 4193 8461 -1.739 4395.4    
 4195 8461 -1.839 4397.2    
 4196 8461 -2.178 4399.8    
 4196 8459 -1.956 4410.3    
 4197 8459 -1.909 4411.1    
 4178 8359 -3.611 4412.2    
 4210 8545 -1.209 4413.9    
 4194 8458 -3.139 4419.1    
 4219 8571 -2.320 4421.5    
 4211 8545 -1.888 4422.1    
 4212 8545 -1.730 4422.7    
 4197 8458 -2.636 4423.3    
 8360 4302 -2.319 4423.6    
 4206 8525 -2.772 4423.6    
 4188 8445 -1.720 4424.1    
 4194 8457 -1.751 4424.3    
 4201 8474 -2.878 4425.1    
 4191 8451 -2.946 4426.7    
 4196 8457 -3.045 4427.7    
 4197 8457 -2.266 4428.5    
 4188 8444 -2.859 4429.6    
 4211 8544 -1.469 4429.9    
 4188 8443 -1.881 4430.4    
 4212 8544 -1.304 4430.5    
 8359 4299 -2.819 4431.3    
 4187 8436 -0.871 4432.2    
 4196 8456 -2.958 4434.0    
 8343 4282 -2.256 4436.4    
 4213 8566 -2.594 4436.8    
 8344 4282 -2.255 4438.2    
 8360 4300 -3.049 4439.0    
 8345 4282 -2.248 4439.3    
 4192 8454 -3.392 4442.3    
 4211 8543 -1.459 4443.7    
 4188 8440 -1.920 4452.2    
 4210 8542 -0.914 4458.5    
 4194 8454 -1.386 4458.5    
 4184 8411 -1.768 4459.4    
 4197 8455 -1.517 4459.7    
 4185 8411 -1.877 4460.8    
 4222 8568 -2.502 4462.1    
 4193 8452 -1.473 4462.8    
 4195 8452 -1.950 4464.7    
 4195 8451 -1.567 4464.9    
 4223 8568 -1.303 4465.1    
 4196 8453 -1.474 4465.3    
 4197 8453 -2.123 4466.2    
 4196 8451 -1.904 4467.6    
 4184 8409 -1.853 4473.8    
 8333 4264 -1.887 4475.3    
 4186 8409 -1.807 4477.1    
 4204 8514 -1.040 4480.3    
 4205 8514 -1.095 4482.9    
 4199 8468 -1.993 4484.6    
 4198 8467 -2.040 4484.7    
 4185 8408 -1.840 4487.5    
 4221 8567 -2.159 4487.8    
 4191 8449 -1.385 4488.0    
 4186 8408 -2.071 4489.3    
 4212 8541 -0.856 4489.5    
 4222 8567 -1.500 4490.5    
 8334 4264 -1.886 4491.7    
 4206 8514 -1.073 4492.3    
 4173 8356 -1.716 4496.9    
 4188 8438 -1.273 4498.7    
 4198 8463 -1.255 4500.3    
 4211 8540 -0.819 4501.1    
 4188 8437 -1.433 4501.1    
 4212 8540 -1.839 4501.6    
 4188 8436 -1.634 4501.8    
 4201 8470 -1.529 4505.3    
 4220 8566 -2.347 4506.1    
 4200 8467 -2.411 4506.3    
 4221 8566 -1.824 4507.9    
 4199 8464 -1.275 4511.9    
 8335 4264 -1.885 4514.5    
 4194 8450 -2.100 4515.4    
 4197 8450 -2.259 4519.8    
 4200 8463 -1.816 4522.0    
 4206 8510 -1.605 4526.1    
 4180 8404 -1.676 4526.5    
 4202 8468 -2.183 4527.0    
 4183 8404 -1.552 4527.3    
 4191 8446 -1.652 4527.5    
 4180 8403 -2.602 4529.8    
 4182 8403 -1.544 4530.7    
 4183 8403 -1.539 4530.7    
 4207 8523 -2.253 4532.7    
 4203 8470 -1.928 4533.7    
 4181 8402 -1.552 4535.1    
 4182 8402 -1.477 4535.7    
 4183 8402 -2.255 4535.8    
 4179 8401 -1.637 4539.8    
 4181 8401 -1.392 4540.5    
 4201 8465 -1.288 4540.7    
 4191 8445 -1.800 4540.9    
 4182 8401 -2.094 4541.1    
 4198 8456 -2.191 4541.5    
 4199 8458 -1.859 4542.6    
 4179 8400 -1.217 4544.6    
 4181 8400 -2.082 4545.3    
 4173 8355 -1.934 4546.0    
 4202 8464 -1.664 4554.8    
 4201 8460 -1.388 4555.1    
 4208 8522 -2.322 4555.3    
 4202 8463 -1.552 4556.2    
 8342 4275 -2.707 4556.9    
 4218 8560 -1.674 4563.2    
 4176 8356 -2.615 4565.5    
 4203 8465 -1.826 4569.5    
 4203 8464 -1.665 4569.6    
 8343 4279 -2.380 4570.3    
 4191 8440 -1.748 4570.5    
 4197 8446 -2.238 4571.1    
 4180 8398 -1.545 4571.7    
 4215 8559 -1.710 4571.8    
 8344 4279 -1.946 4572.2    
 4205 8509 -1.674 4575.1    
 4198 8451 -2.539 4576.8    
 4217 8558 -1.718 4578.3    
 4173 8354 -2.224 4580.0    
 4195 8445 -1.975 4581.1    
 4208 8515 -2.798 4582.5    
 4203 8460 -2.737 4584.1    
 4206 8509 -2.079 4584.9    
 4209 8520 -2.118 4585.1    
 4193 8443 -1.522 4585.9    
 4195 8443 -2.278 4587.9    
 4175 8355 -2.097 4591.4    
 8343 4278 -2.721 4592.0    
 8344 4278 -1.627 4593.9    
 8345 4278 -1.620 4595.0    
 4202 8456 -2.301 4598.4    
 4200 8452 -2.080 4599.0    
 4180 8394 -1.325 4600.1    
 4177 8356 -1.984 4600.7    
 4183 8394 -2.561 4601.0    
 4203 8458 -2.092 4601.1    
 8345 4277 -1.613 4605.8    
 8345 4276 -2.019 4609.9    
 4174 8354 -1.537 4613.4    
 4218 8308 -1.839 4614.5    
 4176 8355 -1.770 4616.1    
 4191 8438 -1.289 4619.5    
 4182 8391 -2.329 4621.9    
 4215 8557 -1.416 4622.0    
 4183 8391 -1.494 4622.0    
 4210 8534 -0.736 4622.4    
 4191 8436 -1.592 4622.7    
 4217 8556 -1.417 4625.9    
 4175 8354 -1.680 4626.2    
 4190 8434 -2.595 4626.8    
 8340 4270 -2.527 4628.5    
 4212 8534 -1.195 4632.1    
 8339 4269 -2.010 4633.3    
 4181 8390 -2.126 4637.2    
 4182 8390 -1.655 4637.8    
 4183 8390 -2.690 4637.8    
 8338 4268 -1.652 4639.5    
 4210 8530 -1.568 4639.7    
 4218 8555 -1.644 4642.0    
 4178 8356 -1.569 4646.2    
 8337 4267 -1.327 4646.8    
 4179 8389 -1.863 4648.1    
 4211 8530 -1.163 4648.9    
 4181 8389 -1.878 4648.9    
 4212 8530 -0.947 4649.5    
 4176 8354 -2.043 4651.3    
 4177 8355 -1.758 4652.2    
 8336 4266 -0.844 4654.7    
 4199 8449 -1.970 4656.2    
 8337 4266 -1.019 4663.3    
 8338 4267 -1.068 4663.8    
 8339 4268 -1.151 4664.8    
 4211 8529 -0.900 4665.9    
 4189 8431 -1.838 4666.2    
 8340 4269 -1.292 4666.5    
 4212 8529 -1.544 4666.5    
 8341 4270 -1.562 4669.3    
 4211 8527 -1.608 4676.3    
 4212 8527 -1.865 4676.9    
 8338 4266 -1.459 4680.5    
 4200 8447 -2.568 4680.9    
 4198 8446 -3.043 4684.6    
 4211 8526 -1.453 4684.9    
 4212 8526 -2.130 4685.5    
 8339 4267 -1.209 4689.4    
 4190 8430 -1.842 4693.9    
 4190 8429 -2.275 4695.1    
 4184 8407 -1.917 4697.1    
 4205 8505 -1.630 4697.4    
 8340 4268 -1.059 4698.5    
 4185 8407 -1.852 4698.6    
 4199 8446 -2.177 4698.6    
 4198 8445 -2.239 4698.9    
 4186 8407 -1.844 4700.6    
 4206 8505 -1.688 4707.7    
 8341 4269 -0.946 4708.0    
 4203 8449 -2.158 4717.7    
 8342 4270 -0.857 4718.4    
 4204 8503 -1.272 4722.8    
 4198 8441 -1.551 4723.1    
 4199 8442 -1.601 4724.4    
 4192 8429 -1.745 4727.1    
 4200 8443 -1.961 4729.8    
 4198 8440 -1.056 4730.7    
 4199 8441 -0.936 4737.3    
 4184 8406 -2.424 4745.3    
 4206 8500 -1.779 4754.0    
 4200 8440 -1.897 4754.7    
 4194 8428 -2.330 4755.1    
 4201 8442 -0.672 4756.1    
 4210 8522 -1.482 4757.6    
 4202 8445 -2.131 4759.9    
 4210 8520 -1.051 4764.3    
 4197 8427 -2.385 4764.6    
 4211 8523 -1.328 4766.6    
 4212 8523 -1.447 4767.3    
 4212 8522 -1.583 4767.9    
 4207 8506 -2.749 4768.5    
 4228 8573 -1.560 4768.6    
 8363 4305 -1.249 4769.8    
 8362 4304 -1.032 4770.0    
 4196 8426 -2.440 4770.7    
 4197 8426 -2.911 4771.6    
 4195 8425 -2.398 4774.5    
 4210 8517 -2.675 4775.1    
 8364 4306 -1.216 4775.6    
 4196 8425 -2.787 4777.6    
 4193 8424 -2.203 4777.7    
 4195 8424 -2.687 4779.9    
 8365 4307 -1.074 4783.0    
 4198 8438 -1.684 4783.2    
 4210 8515 -1.810 4787.3    
 4180 8385 -1.528 4789.3    
 8363 4304 -1.293 4789.5    
 4183 8385 -2.660 4790.3    
 4202 8440 -1.213 4792.5    
 8364 4305 -1.256 4796.9    
 4212 8515 -1.729 4797.7    
 4203 8441 -1.092 4801.0    
 4210 8512 -1.993 4802.4    
 4228 8570 -1.492 4803.1    
 8365 4306 -1.245 4805.3    
 4185 8405 -2.639 4806.3    
 4198 8433 -1.489 4810.7    
 4199 8434 -1.578 4814.3    
 4226 8569 -1.981 4814.5    
 8367 4307 -1.325 4816.3    
 8364 4304 -1.973 4816.8    
 4199 8433 -2.414 4825.5    
 8365 4305 -1.891 4826.9    
 4182 8382 -2.418 4829.3    
 4183 8382 -1.617 4829.4    
 4207 8501 -2.258 4831.6    
 4201 8435 -1.639 4836.9    
 8367 4306 -2.085 4838.9    
 4212 8510 -1.688 4846.3    
 4209 8504 -2.270 4846.3    
 4202 8438 -1.622 4846.4    
 4201 8434 -2.471 4847.2    
 4208 8502 -2.205 4851.5    
 4224 8555 -2.940 4851.9    
 4186 8399 -2.945 4857.3    
 4181 8381 -2.327 4861.2    
 4182 8381 -1.696 4861.8    
 4198 8431 -0.847 4870.8    
 4202 8433 -1.812 4874.7    
 4203 8434 -1.970 4880.1    
 4199 8431 -2.139 4886.0    
 4199 8430 -0.819 4887.0    
 4179 8378 -2.356 4887.7    
 4181 8378 -1.756 4888.5    
 8346 4272 -2.702 4900.4    
 8368 4304 -2.256 4900.7    
 4210 8509 -2.935 4902.9    
 4179 8376 -1.777 4903.2    
 4201 8430 -2.009 4920.9    
 4201 8429 -0.617 4922.3    
 4213 8545 -1.429 4930.2    
 4214 8545 -2.080 4934.9    
 4202 8431 -1.090 4936.3    
 4173 8351 -2.413 4942.5    
 4214 8544 -1.511 4944.6    
 4216 8544 -1.770 4949.6    
 4203 8431 -2.575 4953.7    
 4203 8430 -1.155 4954.8    
 4173 8350 -2.551 4964.9    
 4216 8543 -1.646 4966.8    
 4209 8492 -3.743 4967.5    
 4196 8414 -3.791 4980.3    
 8349 4275 -2.648 4983.6    
 8349 4274 -2.877 4984.9    
 8349 4273 -3.002 4985.5    
 4213 8542 -1.917 4986.0    
 4207 8472 -2.848 4992.6    
 4231 8570 -1.724 5000.4    
 4208 8479 -3.103 5002.4    
 4194 8411 -2.196 5004.4    
 8350 4273 -2.620 5005.2    
 8350 4272 -2.329 5005.6    
 8350 4271 -2.337 5005.7    
 4196 8411 -2.966 5008.8    
 4197 8411 -2.414 5009.8    
 4212 8507 -2.288 5010.2    
 4184 8388 -1.502 5013.3    
 4210 8506 -2.737 5017.4    
 4214 8541 -1.914 5018.2    
 4175 8350 -3.824 5019.2    
 4173 8348 -3.593 5021.9    
 4195 8409 -2.565 5023.7    
 4176 8351 -4.291 5025.6    
 4196 8409 -2.373 5027.0    
 8352 4275 -2.308 5027.6    
 8351 4274 -2.402 5027.6    
 4197 8409 -2.540 5028.1    
 8351 4273 -2.383 5028.2    
 8351 4272 -2.734 5028.6    
 8352 4274 -3.078 5028.9    
 4231 8569 -2.334 5031.3    
 4232 8569 -1.533 5031.5    
 4206 8466 -2.624 5032.5    
 4214 8540 -2.738 5033.4    
 8343 4268 -3.109 5036.4    
 4193 8408 -2.150 5036.7    
 4216 8540 -1.949 5038.6    
 4195 8408 -2.371 5039.1    
 4196 8408 -2.906 5042.5    
 4176 8350 -3.495 5048.7    
 4206 8461 -3.236 5049.4    
 4173 8347 -3.256 5051.9    
 4211 8505 -2.767 5054.4    
 4212 8505 -2.513 5055.1    
 8353 4275 -2.363 5055.6    
 8353 4274 -2.628 5056.9    
 4209 8471 -3.516 5057.0    
 8353 4273 -3.248 5057.5    
 4206 8459 -2.662 5063.2    
 8343 4267 -3.331 5065.1    
 4184 8387 -1.987 5065.9    
 4185 8387 -1.654 5067.7    
 4177 8351 -3.663 5068.3    
 4201 8421 -2.923 5072.7    
 4173 8346 -3.063 5072.9    
 4227 8308 -3.321 5085.2    
 8344 4266 -2.871 5087.0    
 4211 8503 -2.437 5087.2    
 4210 8501 -3.676 5087.3    
 4212 8503 -3.168 5087.9    
 8345 4266 -3.366 5088.5    
 4213 8537 -3.426 5088.7    
 4214 8539 -3.149 5091.7    
 4177 8350 -3.499 5091.9    
 4178 8353 -4.938 5093.4    
 4210 8500 -2.252 5096.7    
 4231 8566 -2.091 5098.9    
 4232 8566 -2.751 5099.1    
 4207 8468 -3.192 5102.5    
 4210 8498 -3.035 5105.6    
 4176 8348 -4.955 5107.7    
 4184 8386 -2.836 5108.9    
 4185 8386 -1.808 5110.7    
 4177 8349 -4.374 5112.5    
 4186 8386 -1.823 5113.1    
 4212 8498 -2.369 5117.4    
 4211 8497 -2.324 5118.7    
 4207 8467 -1.996 5119.3    
 4212 8497 -2.856 5119.5    
 4208 8470 -3.110 5120.4    
 4178 8352 -3.988 5122.1    
 4204 8452 -1.225 5122.8    
 4178 8351 -3.340 5123.5    
 4205 8452 -1.832 5126.2    
 4205 8451 -1.538 5126.5    
 4208 8468 -2.006 5130.4    
 4206 8453 -2.139 5135.9    
 4206 8451 -2.213 5138.8    
 4207 8463 -1.251 5139.6    
 4185 8384 -2.420 5142.3    
 4186 8384 -1.688 5144.7    
 4209 8470 -1.759 5150.2    
 4177 8348 -5.145 5151.8    
 4186 8383 -2.044 5161.8    
 4208 8464 -1.356 5166.2    
 4208 8463 -2.558 5168.0    
 8349 4270 -1.630 5177.4    
 8348 4269 -1.276 5184.6    
 8347 4268 -1.099 5192.0    
 4207 8456 -2.317 5193.5    
 4209 8465 -1.564 5196.4    
 8346 4267 -1.035 5200.2    
 4173 8345 -0.882 5204.5    
 4173 8344 -0.663 5206.0    
 4184 8380 -1.978 5206.2    
 4173 8343 -0.518 5208.4    
 4209 8460 -1.752 5215.3    
 8345 4265 -1.783 5216.1    
 8346 4266 -1.345 5220.9    
 4206 8449 -1.048 5221.8    
 4184 8379 -2.255 5222.7    
 8354 4278 -1.620 5223.9    
 8348 4268 -1.656 5224.1    
 8352 4270 -0.962 5224.9    
 8349 4269 -1.193 5225.0    
 4186 8379 -2.113 5227.1    
 8354 4277 -1.406 5237.8    
 4185 8377 -2.122 5239.0    
 8355 4279 -1.405 5240.5    
 8354 4276 -1.715 5243.1    
 8347 4266 -1.236 5243.4    
 4174 8345 -1.523 5247.6    
 8348 4267 -1.206 5254.9    
 8353 4270 -1.072 5255.1    
 8356 4280 -1.146 5261.8    
 4175 8345 -1.653 5264.2    
 8349 4268 -1.310 5265.1    
 4175 8344 -2.144 5265.7    
 8351 4269 -1.254 5272.0    
 8352 4269 -1.576 5273.4    
 4206 8446 -1.327 5275.2    
 8333 4256 -0.943 5275.3    
 8333 4255 -0.722 5275.8    
 8333 4254 -0.768 5276.1    
 4205 8445 -1.238 5280.3    
 8350 4268 -1.571 5287.2    
 4206 8445 -1.628 5293.4    
 4176 8345 -1.988 5296.7    
 8334 4257 -0.636 5297.4    
 8334 4256 -0.746 5298.0    
 4176 8344 -1.791 5298.3    
 8334 4255 -1.165 5298.5    
 4176 8343 -2.715 5300.7    
 4206 8443 -2.681 5302.4    
 8353 4269 -1.830 5304.2    
 8356 4279 -1.803 5307.3    
 4229 8555 -2.595 5309.5    
 4234 8578 -2.063 5309.9    
 8351 4268 -1.517 5312.9    
 8350 4267 -1.443 5318.8    
 8335 4258 -0.449 5328.3    
 8335 4257 -0.962 5329.1    
 8335 4256 -1.695 5329.8    
 8350 4266 -1.555 5340.4    
 8351 4267 -2.068 5344.8    
 4177 8344 -1.741 5345.8    
 4177 8343 -2.048 5348.3    
 4213 8522 -2.741 5363.0    
 4236 8576 -2.177 5365.1    
 4194 8406 -2.558 5367.3    
 4214 8523 -2.492 5367.8    
 4214 8522 -1.782 5368.5    
 4213 8520 -1.460 5371.5    
 4216 8523 -1.558 5373.7    
 4235 8574 -2.170 5386.5    
 4205 8438 -1.220 5387.0    
 4204 8436 -0.869 5387.6    
 4205 8437 -1.472 5390.4    
 4205 8436 -1.655 5391.3    
 4234 8572 -2.115 5394.8    
 4206 8438 -1.301 5400.6    
 4206 8436 -1.648 5405.0    
 4214 8515 -1.913 5406.4    
 4178 8343 -1.587 5409.8    
 4235 8572 -1.799 5415.8    
 4213 8512 -2.340 5420.1    
 4216 8513 -2.123 5428.0    
 4236 8572 -2.198 5429.2    
 4207 8441 -3.083 5432.3    
 4235 8571 -2.365 5436.3    
 4233 8568 -2.268 5437.8    
 4207 8440 -2.376 5442.4    
 4194 8405 -2.952 5443.4    
 4208 8442 -3.256 5446.8    
 4196 8405 -3.027 5448.5    
 4191 8399 -3.751 5449.4    
 4197 8405 -2.771 5449.8    
 4236 8571 -1.686 5449.8    
 4237 8571 -1.599 5456.3    
 4213 8510 -3.330 5462.4    
 4219 8523 -2.817 5462.9    
 4208 8441 -2.325 5464.0    
 4220 8522 -2.832 5464.5    
 4214 8510 -2.295 5468.2    
 4234 8568 -2.477 5468.5    
 4233 8567 -2.125 5480.1    
 4223 8521 -2.541 5480.4    
 4209 8442 -2.316 5480.5    
 4222 8519 -2.710 5481.0    
 4227 8545 -3.055 5485.2    
 4240 8573 -2.017 5488.5    
 4181 8374 -4.643 5490.0    
 4221 8517 -2.921 5490.4    
 4226 8544 -3.309 5490.9    
 4191 8397 -3.557 5493.1    
 4190 8394 -4.720 5494.2    
 4222 8517 -3.700 5494.5    
 4192 8398 -4.788 5496.9    
 4220 8515 -3.289 5503.7    
 4222 8516 -3.200 5505.0    
 4195 8399 -2.691 5507.4    
 4243 8573 -2.382 5509.9    
 4196 8399 -3.094 5511.5    
 4207 8438 -2.912 5512.1    
 4197 8399 -2.770 5512.7    
 4219 8513 -2.846 5519.0    
 4220 8513 -3.617 5519.8    
 4189 8389 -4.377 5525.9    
 4221 8512 -2.968 5526.5    
 4210 8455 -3.712 5528.4    
 4179 8373 -4.503 5529.6    
 4222 8512 -3.789 5530.7    
 4235 8567 -2.675 5533.2    
 4240 8570 -2.615 5534.2    
 4241 8570 -2.556 5536.5    
 4210 8453 -3.031 5538.2    
 4242 8570 -2.749 5540.7    
 4210 8451 -3.451 5541.6    
 4234 8566 -2.298 5541.7    
 4207 8433 -2.604 5548.6    
 4193 8397 -2.355 5549.1    
 4220 8511 -3.130 5549.3    
 4195 8397 -3.461 5552.1    
 4211 8452 -2.198 5554.3    
 4238 8569 -2.938 5554.9    
 4212 8452 -3.006 5555.2    
 4212 8451 -2.363 5555.6    
 4196 8397 -2.757 5556.2    
 4208 8434 -2.756 5566.6    
 4228 8542 -2.620 5570.6    
 4240 8569 -2.387 5572.1    
 4241 8569 -2.303 5574.4    
 4195 8392 -2.747 5575.1    
 8350 4264 -2.625 5580.4    
 4208 8433 -3.159 5581.6    
 4209 8435 -3.003 5588.0    
 4206 8423 -3.297 5588.1    
 4227 8541 -2.591 5588.3    
 4226 8540 -2.528 5600.7    
 4209 8434 -3.491 5601.8    
 8351 4264 -2.639 5609.0    
 4207 8431 -1.881 5628.6    
 4210 8449 -2.117 5638.2    
 8357 4277 -1.434 5641.7    
 8360 4280 -1.853 5642.4    
 8357 4276 -1.386 5647.9    
 8358 4278 -1.598 5648.3    
 8359 4279 -1.684 5649.5    
 4212 8448 -2.561 5658.6    
 4208 8430 -1.943 5664.0    
 8358 4277 -1.332 5664.6    
 8359 4278 -1.330 5682.6    
 8360 4279 -1.195 5694.7    
 8361 4280 -1.015 5698.2    
 4209 8429 -1.966 5702.3    
 4218 8506 -2.682 5710.5    
 4194 8388 -2.003 5712.8    
 4197 8388 -2.385 5719.8    
 4210 8445 -3.117 5721.8    
 4213 8505 -1.891 5729.2    
 4214 8505 -2.616 5735.5    
 4212 8445 -2.043 5736.6    
 4210 8442 -2.211 5738.5    
 4211 8443 -2.126 5746.3    
 4215 8504 -2.115 5746.4    
 4212 8443 -2.821 5747.2    
 4246 8570 -2.190 5762.2    
 4212 8441 -2.296 5772.7    
 4214 8503 -2.023 5777.7    
 8343 4261 -2.144 5780.9    
 4194 8387 -2.813 5781.2    
 8344 4262 -1.553 5781.2    
 8345 4263 -1.203 5781.8    
 8345 4262 -0.852 5783.1    
 8344 4261 -1.060 5783.9    
 8343 4260 -1.192 5785.0    
 8345 4261 -1.058 5785.7    
 8344 4260 -0.749 5787.9    
 8343 4259 -0.601 5791.0    
 4218 8501 -2.204 5801.2    
 4246 8569 -2.769 5803.2    
 4201 8394 -3.753 5807.7    
 4214 8498 -2.994 5815.9    
 4216 8499 -2.352 5819.9    
 8338 4256 -3.443 5823.6    
 8338 4255 -2.860 5824.1    
 8338 4254 -3.250 5824.5    
 4216 8497 -2.895 5825.5    
 4175 8336 -5.231 5825.8    
 4228 8534 -3.198 5828.9    
 4231 8542 -2.224 5837.8    
 4227 8530 -2.871 5838.4    
 4195 8386 -2.253 5838.7    
 4194 8385 -2.708 5842.5    
 4196 8386 -2.899 5843.2    
 4197 8386 -2.745 5844.6    
 8354 4267 -3.343 5844.9    
 4241 8560 -3.313 5848.8    
 4215 8496 -2.990 5849.0    
 4176 8337 -5.411 5852.1    
 4184 8375 -4.415 5856.4    
 4226 8529 -2.903 5858.2    
 8355 4268 -3.579 5862.6    
 8339 4257 -3.809 5862.7    
 4212 8438 -3.107 5862.8    
 8339 4256 -2.954 5863.4    
 8339 4255 -3.009 5864.0    
 4211 8437 -2.899 5865.9    
 4212 8436 -2.943 5867.9    
 4242 8559 -3.327 5870.1    
 4232 8541 -2.183 5875.6    
 4241 8558 -3.454 5875.6    
 4193 8384 -2.152 5876.6    
 4196 8384 -2.761 5884.4    
 4195 8383 -2.784 5902.2    
 4197 8382 -2.808 5908.2    
 8340 4257 -3.107 5916.0    
 8340 4256 -2.872 5916.8    
 4217 8492 -2.955 5918.0    
 4214 8491 -3.346 5919.1    
 4221 8500 -3.375 5919.9    
 4199 8388 -4.543 5920.9    
 4219 8498 -3.249 5927.6    
 4220 8498 -2.984 5928.7    
 4219 8497 -2.663 5930.4    
 4240 8308 -2.509 5930.6    
 4220 8497 -3.271 5931.4    
 4221 8498 -3.437 5931.9    
 4241 8308 -2.402 5933.3    
 4249 8573 -1.450 5935.0    
 4196 8381 -2.913 5955.6    
 4197 8381 -3.531 5957.0    
 4242 8556 -2.223 5959.1    
 4194 8380 -2.953 5964.6    
 4243 8557 -2.194 5970.7    
 4197 8380 -3.410 5972.3    
 4218 8487 -2.870 5972.6    
 4248 8570 -2.381 5978.6    
 4241 8555 -2.415 5978.8    
 8341 4258 -3.391 5981.8    
 8341 4257 -2.775 5982.9    
 4242 8555 -3.142 5983.7    
 8347 4260 -3.196 5991.1    
 4195 8378 -2.914 5991.8    
 4250 8570 -2.787 5992.3    
 4196 8379 -3.376 5992.5    
 4197 8379 -3.268 5993.9    
 4196 8378 -3.417 5996.6    
 4233 8553 -2.949 5998.5    
 4193 8377 -3.393 6003.2    
 4221 8495 -3.640 6004.3    
 4215 8480 -2.938 6006.3    
 4195 8377 -3.418 6006.6    
 4222 8495 -2.616 6009.2    
 4196 8377 -3.662 6011.4    
 4193 8376 -2.761 6011.8    
 4195 8376 -3.302 6015.2    
 4220 8493 -3.572 6015.4    
 4221 8493 -2.896 6018.7    
 4226 8522 -3.094 6018.8    
 4203 8388 -4.679 6020.7    
 4248 8569 -2.758 6022.8    
 4222 8493 -3.286 6023.6    
 4223 8494 -2.476 6025.1    
 4227 8523 -3.180 6025.3    
 4217 8474 -2.901 6029.3    
 8348 4260 -4.056 6033.9    
 4220 8491 -3.021 6036.0    
 4250 8569 -3.319 6036.7    
 4221 8491 -3.286 6039.3    
 8348 4259 -3.520 6040.4    
 4228 8522 -3.015 6045.4    
 4218 8471 -2.923 6047.7    
 4234 8552 -3.064 6047.8    
 4219 8490 -3.060 6049.7    
 4220 8490 -3.453 6050.7    
 4227 8517 -2.949 6054.4    
 8342 4258 -2.702 6062.7    
 4222 8489 -3.106 6063.1    
 4223 8489 -3.537 6068.8    
 4235 8552 -3.362 6074.1    
 4221 8488 -2.963 6077.3    
 4228 8516 -3.159 6086.7    
 4244 8560 -2.260 6091.7    
 4228 8515 -3.203 6093.5    
 4236 8551 -3.176 6098.1    
 4227 8512 -3.202 6098.4    
 4246 8560 -3.358 6101.2    
 8350 4262 -3.463 6110.7    
 8350 4261 -2.980 6113.7    
 8350 4260 -2.685 6118.2    
 4226 8511 -2.998 6121.8    
 4231 8534 -2.305 6122.1    
 4246 8558 -2.250 6130.4    
 8351 4260 -3.101 6152.7    
 4232 8530 -2.520 6152.7    
 8351 4259 -2.550 6159.4    
 4230 8529 -2.686 6171.5    
 4228 8510 -2.229 6172.0    
 4244 8308 -1.864 6183.4    
 4246 8308 -1.963 6193.2    
 4230 8526 -2.997 6204.7    
 4227 8509 -2.387 6261.3    
 4213 8459 -3.779 6264.4    
 4205 8407 -3.923 6268.4    
 4206 8407 -3.791 6286.8    
 4213 8458 -3.755 6289.1    
 4222 8470 -2.598 6307.3    
 4223 8469 -2.245 6315.8    
 4221 8468 -2.556 6317.2    
 4222 8468 -2.896 6322.5    
 4226 8508 -2.341 6327.5    
 4173 8334 -3.486 6330.1    
 4252 8577 -3.337 6335.7    
 4220 8467 -2.542 6339.3    
 4221 8467 -2.796 6342.9    
 4248 8560 -2.878 6344.4    
 4222 8467 -3.819 6348.3    
 4230 8523 -3.638 6349.0    
 4232 8523 -3.848 6360.7    
 4231 8522 -3.575 6361.5    
 4173 8333 -3.818 6362.9    
 4213 8455 -3.994 6363.0    
 4219 8462 -2.310 6369.7    
 4220 8463 -3.220 6370.4    
 4220 8462 -2.716 6370.8    
 4221 8464 -3.193 6371.5    
 4231 8520 -3.321 6373.4    
 4221 8463 -3.159 6374.1    
 4221 8462 -3.663 6374.5    
 4249 8559 -2.236 6375.2    
 8361 4270 -3.789 6376.2    
 4222 8465 -2.810 6376.8    
 4222 8464 -2.954 6377.0    
 8360 4269 -3.934 6377.1    
 4223 8465 -2.794 6383.1    
 4249 8558 -3.429 6387.3    
 4250 8558 -3.059 6391.6    
 4216 8452 -3.548 6396.3    
 4216 8451 -4.570 6396.8    
 4237 8544 -3.457 6405.9    
 4224 8471 -5.009 6408.9    
 4226 8507 -3.329 6410.1    
 4223 8460 -4.143 6411.5    
 4231 8515 -3.973 6414.7    
 4227 8507 -3.015 6418.6    
 8359 4267 -4.609 6425.3    
 4236 8543 -3.432 6425.6    
 4252 8573 -3.155 6433.0    
 4222 8458 -3.971 6438.5    
 4248 8308 -2.673 6443.9    
 4227 8506 -3.718 6449.2    
 4175 8333 -4.883 6452.2    
 4249 8308 -2.115 6455.5    
 4250 8308 -2.556 6459.9    
 8343 4257 -3.149 6462.0    
 8343 4256 -3.322 6462.9    
 8343 4255 -3.792 6463.6    
 8344 4256 -3.297 6466.6    
 4176 8334 -5.060 6467.0    
 8344 4255 -3.156 6467.3    
 8344 4254 -3.259 6467.8    
 4247 8554 -1.320 6472.7    
 4187 8373 -3.909 6477.5    
 4249 8556 -3.567 6480.4    
 4177 8335 -5.801 6490.2    
 4176 8333 -4.614 6501.2    
 4231 8510 -3.276 6501.8    
 4213 8449 -2.720 6508.9    
 4249 8555 -2.744 6509.4    
 4221 8455 -2.545 6510.3    
 4222 8455 -2.556 6516.0    
 4214 8449 -2.881 6517.1    
 4220 8453 -2.423 6520.1    
 4222 8454 -2.621 6522.6    
 4219 8452 -2.475 6523.1    
 4219 8451 -2.459 6523.6    
 4221 8453 -2.613 6524.0    
 4220 8452 -3.000 6524.3    
 4220 8451 -2.666 6524.8    
 4221 8451 -2.994 6528.7    
 4223 8454 -2.266 6529.2    
 4222 8453 -3.189 6529.7    
 4177 8334 -4.563 6537.9    
 4214 8447 -4.474 6547.0    
 4205 8399 -4.477 6550.1    
 4216 8447 -3.046 6555.8    
 4233 8536 -2.564 6564.1    
 4177 8333 -4.698 6572.9    
 4240 8542 -3.748 6578.5    
 4227 8500 -3.785 6580.9    
 4178 8335 -5.282 6580.9    
 8362 4277 -1.154 6590.5    
 4213 8446 -2.891 6592.1    
 4233 8535 -1.892 6594.7    
 4234 8537 -2.298 6597.3    
 8365 4280 -1.634 6597.5    
 4214 8446 -3.046 6600.5    
 4228 8500 -2.889 6603.8    
 8363 4278 -1.414 6605.5    
 4234 8536 -2.078 6608.9    
 8364 4279 -1.499 6612.2    
 4213 8445 -2.970 6620.6    
 4235 8539 -2.205 6625.2    
 8363 4277 -2.178 6627.9    
 4238 8540 -2.776 6628.4    
 4235 8537 -2.382 6628.7    
 4214 8445 -2.964 6629.0    
 4178 8334 -4.379 6630.0    
 8363 4276 -1.562 6636.4    
 4221 8450 -3.052 6639.1    
 4234 8535 -2.057 6639.9    
 4235 8536 -2.000 6640.4    
 4213 8442 -2.160 6643.0    
 4214 8443 -2.988 6643.2    
 4222 8450 -3.039 6645.1    
 4236 8538 -2.231 6645.9    
 4236 8537 -1.906 6648.8    
 8364 4278 -1.757 6657.6    
 8367 4280 -1.067 6661.1    
 8365 4279 -1.404 6669.3    
 4214 8441 -2.223 6677.2    
 8364 4277 -1.545 6680.3    
 4213 8440 -2.920 6683.8    
 4216 8440 -2.169 6701.6    
 8365 4278 -1.715 6715.5    
 4228 8494 -3.511 6721.9    
 8347 4255 -3.570 6722.1    
 8347 4254 -3.564 6722.6    
 4233 8533 -1.514 6729.7    
 8367 4279 -1.911 6734.2    
 4220 8446 -3.275 6746.2    
 4191 8375 -3.999 6746.6    
 4233 8532 -2.004 6749.1    
 4221 8446 -3.354 6750.3    
 4222 8446 -3.176 6756.5    
 8348 4257 -3.026 6774.1    
 8348 4256 -3.098 6775.2    
 8348 4255 -3.494 6775.9    
 8366 4277 -1.755 6780.1    
 4213 8438 -2.511 6789.2    
 4219 8443 -2.845 6789.5    
 4234 8532 -1.556 6796.5    
 4214 8438 -2.609 6798.1    
 4214 8436 -2.642 6805.0    
 4216 8438 -3.318 6807.5    
 4229 8504 -4.047 6808.9    
 4216 8437 -2.803 6813.0    
 4216 8436 -2.706 6814.5    
 8354 4262 -3.966 6815.6    
 8368 4278 -2.350 6818.9    
 4220 8441 -4.045 6826.3    
 4247 8549 -2.384 6829.3    
 4191 8374 -3.592 6829.9    
 4247 8548 -2.493 6830.7    
 4247 8547 -2.637 6831.6    
 8349 4258 -2.659 6842.0    
 8349 4257 -3.149 6843.4    
 8368 4276 -2.543 6851.7    
 8333 4251 -3.863 6857.6    
 8350 4256 -1.232 6881.7    
 8350 4255 -1.010 6882.5    
 8350 4254 -1.055 6883.1    
 4236 8529 -3.082 6900.8    
 4235 8527 -2.824 6901.9    
 8355 4260 -3.707 6902.1    
 4246 8542 -2.987 6903.2    
 8369 4279 -3.000 6908.4    
 4237 8529 -2.744 6911.4    
 4239 8534 -3.584 6918.1    
 8351 4257 -0.943 6924.2    
 8351 4256 -1.051 6925.3    
 8351 4255 -1.470 6926.1    
 4233 8524 -2.269 6935.6    
 4244 8541 -2.993 6943.3    
 4232 8503 -3.608 6944.5    
 4240 8533 -3.403 6947.2    
 4237 8526 -2.333 6953.1    
 4252 8559 -4.134 6953.4    
 4246 8541 -2.651 6955.7    
 4184 8372 -5.207 6956.4    
 4221 8438 -4.624 6957.1    
 8369 4278 -3.536 6958.0    
 4206 8387 -4.769 6965.7    
 8353 4258 -0.775 6978.4    
 8353 4257 -1.288 6979.8    
 8353 4256 -2.020 6980.9    
 4230 8497 -4.013 6989.4    
 4218 8431 -4.895 6989.5    
 4215 8429 -4.306 6990.7    
 4217 8429 -4.810 6991.3    
 4218 8430 -5.049 6991.6    
 4238 8529 -3.720 6992.1    
 4231 8498 -3.928 6999.4    
 4232 8498 -3.972 6999.7    
 4232 8497 -4.230 7003.5    
 8356 4260 -3.816 7018.5    
 4235 8524 -3.199 7020.8    
 4205 8386 -4.423 7024.0    
 8356 4259 -3.329 7027.3    
 4214 8425 -4.127 7041.9    
 4184 8371 -6.084 7043.6    
 4185 8371 -5.811 7047.1    
 4252 8308 -3.304 7049.0    
 4214 8424 -4.729 7053.5    
 4249 8546 -3.197 7056.3    
 4250 8546 -4.227 7061.6    
 4216 8424 -3.909 7063.7    
 4234 8522 -4.009 7065.7    
 4233 8516 -3.330 7070.2    
 4204 8384 -4.104 7077.2    
 4233 8515 -4.575 7079.3    
 4234 8520 -3.490 7080.5    
 4228 8470 -4.292 7082.7    
 4234 8329 -2.416 7091.9    
 4235 8522 -3.386 7101.7    
 4234 8517 -3.524 7104.5    
 4252 8555 -3.644 7113.4    
 4236 8523 -3.520 7123.5    
 4235 8329 -2.195 7128.2    
 4235 8518 -2.625 7132.8    
 4199 8375 -4.754 7133.8    
 4226 8463 -2.609 7136.6    
 4227 8464 -2.857 7143.8    
 4227 8463 -4.211 7147.1    
 4236 8518 -2.230 7156.0    
 4237 8518 -2.106 7167.4    
 4228 8465 -3.343 7170.5    
 4222 8428 -3.200 7177.6    
 4221 8427 -3.009 7181.1    
 4223 8428 -2.475 7185.5    
 4222 8427 -2.588 7188.1    
 4220 8426 -2.925 7192.2    
 4223 8427 -3.569 7196.0    
 4221 8426 -2.698 7196.9    
 4222 8426 -3.305 7203.9    
 4219 8425 -2.899 7206.4    
 4228 8460 -2.131 7206.5    
 4220 8425 -2.751 7207.9    
 4221 8425 -3.189 7212.7    
 4219 8424 -2.635 7218.6    
 4227 8458 -2.254 7221.2    
 8371 4285 -3.370 7229.0    
 4249 8542 -2.487 7230.6    
 8370 4284 -3.221 7233.9    
 4250 8542 -3.054 7236.2    
 4226 8456 -2.308 7240.9    
 4253 8560 -3.164 7241.8    
 4228 8458 -3.359 7248.7    
 4240 8522 -3.203 7251.1    
 4227 8456 -3.402 7251.7    
 4241 8522 -3.098 7255.1    
 4228 8457 -3.907 7262.6    
 4240 8519 -2.512 7268.3    
 4248 8541 -3.079 7273.6    
 4242 8520 -2.910 7277.9    
 4238 8515 -3.237 7290.8    
 4240 8517 -3.156 7292.0    
 4250 8541 -2.863 7293.9    
 4242 8517 -2.377 7303.3    
 8370 4283 -2.421 7303.4    
 8371 4284 -2.525 7305.9    
 4243 8519 -2.870 7306.0    
 4240 8516 -1.952 7310.6    
 8372 4285 -2.501 7323.3    
 4241 8515 -2.659 7324.4    
 4226 8452 -3.622 7330.3    
 4227 8451 -4.011 7342.0    
 4243 8516 -2.289 7348.7    
 8333 4247 -0.898 7356.0    
 4253 8308 -2.713 7371.8    
 4239 8511 -3.751 7374.3    
 8371 4283 -3.460 7376.8    
 8334 4247 -0.895 7400.2    
 4241 8511 -2.382 7405.3    
 4240 8510 -2.347 7434.1    
 4253 8555 -2.744 7442.2    
 8378 4305 -1.690 7454.0    
 8335 4247 -0.892 7462.4    
 8381 4306 -1.656 7466.2    
 4213 8414 -5.409 7480.6    
 4223 8421 -3.468 7486.9    
 8382 4307 -1.558 7489.6    
 8378 4304 -2.145 7502.3    
 4227 8449 -3.326 7512.4    
 8357 4263 -3.850 7513.7    
 4247 8531 -2.391 7516.0    
 8381 4305 -2.139 7518.5    
 4247 8324 -2.261 7522.8    
 4227 8448 -3.871 7523.1    
 4226 8447 -3.810 7540.5    
 4228 8449 -3.963 7542.2    
 8382 4306 -2.220 7544.2    
 8358 4262 -3.786 7556.4    
 4229 8460 -4.168 7560.4    
 8358 4261 -4.116 7560.9    
 4236 8508 -4.240 7561.5    
 4238 8509 -4.055 7562.3    
 4239 8509 -3.958 7565.8    
 4222 8418 -3.865 7565.9    
 4223 8418 -3.190 7574.8    
 8385 4307 -2.391 7585.5    
 4221 8417 -3.861 7590.9    
 4222 8417 -3.283 7598.7    
 4223 8417 -4.426 7607.6    
 8359 4261 -3.831 7622.5    
 4227 8446 -3.736 7623.5    
 8359 4260 -4.242 7629.6    
 4244 8522 -3.990 7632.6    
 8384 4305 -1.872 7635.0    
 8383 4304 -1.577 7647.8    
 8386 4306 -1.830 7650.6    
 4228 8446 -3.881 7654.2    
 4227 8445 -3.524 7661.6    
 4246 8520 -3.345 7664.9    
 4226 8443 -3.368 7668.4    
 4238 8508 -2.852 7671.2    
 4244 8517 -3.437 7677.8    
 4220 8414 -3.704 7679.5    
 4221 8414 -3.422 7684.9    
 8384 4304 -1.786 7685.6    
 8387 4307 -1.617 7691.5    
 4222 8414 -4.320 7692.9    
 4246 8517 -2.924 7693.0    
 8386 4305 -1.723 7705.5    
 4231 8458 -3.284 7707.8    
 4244 8515 -3.174 7709.4    
 8360 4260 -3.720 7712.4    
 4246 8516 -3.422 7713.7    
 4219 8412 -3.429 7721.4    
 4228 8442 -2.521 7722.9    
 4220 8412 -3.614 7723.1    
 4227 8441 -2.527 7726.0    
 4226 8440 -2.560 7734.1    
 4227 8440 -3.392 7746.4    
 8387 4306 -1.659 7749.1    
 8386 4304 -2.383 7757.1    
 4252 8546 -1.717 7771.6    
 4244 8511 -2.992 7799.0    
 8387 4305 -2.253 7805.4    
 8388 4307 -1.695 7816.0    
 4230 8452 -2.788 7827.6    
 8361 4259 -3.746 7828.1    
 4230 8451 -3.291 7828.3    
 4231 8453 -3.690 7838.9    
 4234 8500 -3.383 7840.5    
 4239 8506 -2.895 7841.9    
 4232 8452 -3.797 7845.3    
 4232 8451 -3.056 7846.1    
 4246 8510 -3.409 7851.3    
 4240 8506 -3.765 7872.4    
 4226 8438 -2.982 7875.5    
 8388 4306 -2.415 7875.5    
 4241 8506 -2.900 7877.0    
 4226 8436 -3.706 7884.8    
 4235 8500 -2.822 7884.9    
 4227 8438 -3.857 7888.2    
 4235 8498 -2.569 7906.1    
 4233 8495 -2.496 7924.0    
 4236 8498 -2.414 7934.7    
 4236 8497 -2.335 7939.7    
 4233 8494 -1.364 7942.0    
 8385 4303 -2.079 7976.1    
 4234 8495 -1.620 7989.4    
 4243 8504 -2.111 7990.5    
 8382 4302 -2.488 8009.8    
 4244 8509 -3.432 8013.6    
 4239 8501 -3.467 8014.0    
 4234 8493 -2.081 8014.9    
 4233 8489 -2.469 8018.0    
 4241 8502 -3.207 8036.5    
 8381 4299 -2.828 8036.5    
 4231 8449 -2.607 8040.6    
 4242 8502 -2.180 8045.3    
 4241 8501 -2.274 8050.7    
 4234 8491 -3.021 8051.4    
 4235 8493 -1.575 8061.2    
 4249 8519 -3.287 8072.7    
 4234 8489 -1.804 8084.9    
 4184 8369 -5.455 8095.2    
 4235 8491 -1.911 8098.2    
 4185 8369 -4.505 8099.8    
 4186 8369 -4.332 8105.8    
 4234 8488 -2.380 8119.1    
 4235 8490 -2.884 8124.8    
 4249 8516 -2.684 8124.9    
 4236 8491 -1.532 8128.2    
 4236 8490 -1.813 8155.0    
 4233 8478 -1.136 8163.0    
 4233 8477 -2.021 8166.5    
 4235 8488 -2.072 8166.7    
 4237 8490 -1.333 8169.7    
 8379 4290 -3.841 8172.5    
 4211 8376 -4.280 8176.4    
 4235 8485 -2.395 8185.6    
 8381 4294 -3.174 8186.1    
 4250 8512 -3.850 8187.9    
 4243 8496 -3.989 8190.3    
 4230 8445 -3.145 8192.7    
 8333 4234 -4.150 8197.0    
 4233 8471 -3.534 8202.5    
 4234 8479 -2.836 8203.0    
 4232 8445 -2.678 8212.1    
 4230 8443 -2.708 8214.3    
 8382 4297 -3.129 8215.5    
 4236 8485 -2.611 8216.3    
 4248 8511 -3.513 8218.2    
 4190 8372 -3.875 8224.1    
 4236 8484 -2.685 8225.6    
 4234 8477 -1.199 8235.9    
 4234 8476 -1.764 8238.4    
 4234 8475 -2.764 8241.6    
 4231 8442 -2.988 8246.3    
 4189 8371 -4.029 8262.0    
 8397 4305 -1.651 8268.8    
 8392 4304 -1.325 8276.9    
 4235 8476 -1.240 8287.4    
 4235 8475 -1.646 8290.6    
 4246 8507 -2.710 8290.7    
 4235 8473 -2.639 8291.8    
 4185 8368 -4.164 8296.9    
 4186 8368 -3.604 8303.1    
 8399 4306 -1.655 8305.1    
 4236 8475 -1.257 8322.0    
 8334 4233 -3.819 8323.0    
 4236 8473 -1.581 8323.3    
 8397 4304 -1.522 8328.3    
 4237 8473 -1.089 8338.7    
 4246 8506 -3.795 8341.8    
 4184 8367 -2.706 8348.3    
 8399 4305 -1.495 8369.8    
 4194 8372 -4.710 8380.1    
 4251 8524 -2.046 8380.6    
 8405 4307 -1.501 8383.7    
 4241 8487 -3.845 8384.7    
 8402 4306 -4.358 8393.0    
 4242 8487 -4.054 8394.3    
 4197 8372 -4.876 8395.2    
 4244 8505 -4.306 8396.4    
 4186 8366 -3.570 8397.1    
 4253 8542 -4.782 8400.2    
 4245 8505 -4.598 8400.9    
 8335 4233 -5.376 8401.6    
 8386 4293 -4.494 8418.5    
 8386 4292 -3.615 8421.8    
 8399 4304 -2.168 8430.8    
 4184 8365 -2.721 8450.2    
 8405 4306 -1.498 8452.2    
 4185 8365 -2.932 8455.3    
 4248 8509 -3.053 8456.8    
 4232 8436 -3.265 8483.9    
 4244 8501 -3.127 8518.2    
 8405 4305 -2.120 8519.3    
 4246 8502 -3.263 8520.8    
 4251 8329 -1.780 8534.1    
 4251 8518 -2.169 8540.7    
 4184 8364 -3.265 8543.7    
 4185 8364 -2.643 8548.9    
 4206 8375 -3.096 8553.2    
 4186 8364 -3.146 8555.5    
 8406 4307 -1.617 8570.7    
 4185 8363 -3.012 8636.2    
 8406 4306 -2.373 8642.3    
 4186 8363 -2.700 8643.0    
 4205 8374 -3.035 8652.2    
 4234 8464 -4.169 8652.9    
 8391 4302 -4.465 8653.9    
 8398 4303 -3.818 8663.0    
 4222 8406 -4.555 8670.3    
 4223 8406 -4.153 8681.9    
 4206 8374 -2.540 8687.4    
 4186 8362 -2.949 8707.4    
 4233 8457 -1.467 8708.0    
 4234 8459 -1.599 8718.7    
 4235 8461 -1.863 8732.2    
 4204 8373 -2.494 8743.5    
 4248 8507 -2.634 8746.3    
 4205 8373 -2.523 8753.5    
 4236 8461 -1.567 8767.0    
 4235 8459 -1.705 8773.6    
 4237 8461 -1.459 8784.1    
 4234 8457 -2.000 8787.0    
 4206 8373 -3.320 8789.5    
 4240 8470 -2.881 8796.4    
 4236 8459 -2.100 8808.8    
 4215 8398 -5.321 8816.5    
 4249 8506 -3.171 8824.7    
 4233 8455 -3.431 8829.5    
 4250 8506 -3.140 8833.0    
 4199 8372 -3.152 8835.7    
 4233 8454 -3.300 8841.7    
 4235 8457 -2.723 8842.7    
 4233 8453 -3.794 8854.8    
 4221 8405 -4.456 8859.8    
 4222 8405 -4.334 8870.4    
 4241 8467 -3.798 8882.4    
 8396 4299 -4.161 8885.6    
 4234 8455 -3.184 8910.8    
 4223 8404 -2.785 8916.2    
 4222 8403 -2.651 8917.1    
 4221 8402 -2.604 8925.8    
 4198 8371 -3.068 8925.8    
 4240 8465 -2.801 8932.2    
 4222 8402 -3.491 8936.6    
 4220 8401 -2.563 8939.3    
 4241 8463 -2.855 8943.8    
 4201 8372 -1.789 8947.2    
 4242 8464 -2.949 8949.5    
 4219 8400 -2.465 8955.8    
 4199 8371 -1.988 8976.9    
 4240 8460 -3.252 8988.0    
 4243 8465 -3.182 8989.2    
 8343 4251 -0.748 9009.8    
 8344 4251 -0.753 9017.0    
 8345 4251 -0.754 9021.6    
 4198 8370 -2.033 9035.8    
 4243 8460 -2.888 9045.7    
 4238 8456 -2.626 9056.2    
 4203 8372 -3.777 9059.8    
 4233 8450 -2.924 9068.3    
 4242 8458 -3.071 9071.2    
 4250 8500 -3.807 9081.9    
 8373 4283 -2.564 9097.2    
 8374 4284 -2.644 9099.0    
 4241 8456 -3.258 9108.1    
 4233 8449 -3.162 9113.0    
 4234 8450 -4.107 9154.0    
 4238 8452 -3.012 9196.5    
 4223 8394 -2.796 9206.5    
 4203 8371 -2.307 9208.3    
 4234 8448 -3.344 9215.6    
 4247 8483 -1.763 9237.0    
 4247 8482 -1.873 9245.8    
 4247 8481 -2.019 9255.2    
 4202 8370 -2.261 9264.0    
 4180 8361 -1.986 9290.7    
 4183 8361 -3.022 9294.4    
 8405 4296 -3.653 9311.5    
 4187 8368 -2.878 9313.6    
 4236 8448 -3.442 9316.3    
 4235 8447 -3.249 9321.2    
 4221 8390 -3.354 9329.8    
 4222 8390 -4.279 9341.6    
 4188 8369 -3.157 9362.1    
 4234 8446 -3.502 9366.7    
 4220 8389 -3.699 9369.3    
 8363 4263 -3.708 9370.5    
 4221 8389 -4.491 9377.3    
 4237 8447 -3.109 9380.4    
 8363 4261 -3.434 9380.7    
 4246 8468 -4.028 9420.5    
 4234 8445 -3.308 9424.2    
 8346 4251 -2.729 9446.3    
 4182 8360 -2.767 9446.8    
 4183 8360 -2.030 9447.0    
 4249 8487 -5.092 9466.9    
 4240 8450 -4.676 9467.6    
 4239 8449 -4.526 9472.0    
 8364 4262 -3.654 9478.9    
 4238 8448 -4.007 9483.4    
 8364 4261 -4.008 9486.1    
 8364 4260 -3.404 9497.0    
 4240 8449 -3.082 9516.4    
 4235 8443 -3.757 9517.5    
 4244 8464 -4.073 9518.6    
 8347 4251 -3.096 9520.1    
 4244 8463 -3.297 9524.5    
 4236 8445 -3.617 9529.6    
 4238 8447 -3.424 9529.7    
 4259 8582 -3.409 9534.3    
 4246 8465 -3.895 9541.5    
 4246 8464 -3.355 9541.9    
 4234 8440 -4.092 9552.9    
 4236 8444 -3.281 9555.1    
 4181 8359 -2.660 9571.6    
 4182 8359 -2.072 9574.1    
 8343 4248 -5.720 9595.8    
 8344 4248 -5.272 9604.0    
 8365 4261 -3.828 9604.0    
 4246 8460 -3.945 9605.2    
 4222 8388 -4.369 9608.8    
 8365 4260 -3.535 9615.2    
 4188 8368 -3.439 9626.4    
 8348 4251 -3.574 9628.5    
 8365 4259 -3.661 9631.8    
 4251 8500 -2.518 9641.9    
 4179 8358 -2.674 9667.3    
 4181 8358 -2.103 9670.5    
 4251 8498 -2.687 9673.7    
 8411 4307 -2.637 9693.2    
 4240 8446 -3.310 9695.3    
 4238 8445 -3.586 9704.5    
 4244 8456 -3.973 9711.1    
 8409 4306 -3.022 9716.0    
 4210 8375 -1.615 9730.3    
 4179 8357 -2.103 9734.6    
 4188 8366 -3.337 9752.9    
 4212 8375 -2.258 9773.4    
 8411 4306 -2.725 9784.9    
 4221 8387 -4.167 9790.9    
 4222 8387 -4.275 9803.9    
 8409 4305 -2.922 9804.7    
 4240 8442 -2.520 9805.8    
 4238 8441 -3.387 9808.1    
 4260 8576 -3.635 9817.3    
 4261 8576 -3.070 9829.0    
 4238 8440 -2.665 9841.0    
 8350 4251 -2.756 9845.1    
 4240 8441 -3.811 9861.7    
 8411 4305 -3.374 9874.8    
 8343 4247 -3.651 9890.2    
 8344 4247 -3.496 9898.9    
 4191 8369 -2.819 9900.9    
 4210 8374 -2.487 9904.5    
 4254 8554 -1.680 9910.3    
 4255 8554 -1.591 9911.4    
 4256 8554 -1.500 9913.1    
 4257 8554 -1.451 9915.3    
 4258 8554 -1.442 9918.1    
 8351 4251 -2.770 9934.5    
 4211 8374 -2.102 9946.3    
 4212 8374 -1.793 9949.1    
 4222 8385 -4.706 9981.7    
 4223 8385 -4.514 9997.1    
 4249 8470 -3.719 10003.    
 8380 4286 -3.946 10005.    
 4250 8470 -3.686 10013.    
 4248 8468 -4.145 10013.    
 4260 8572 -2.215 10034.    
 4261 8572 -2.342 10046.    
 4238 8438 -2.997 10071.    
 4211 8373 -1.749 10080.    
 4212 8373 -2.419 10083.    
 4233 8428 -1.940 10090.    
 4196 8369 -3.751 10108.    
 4233 8427 -2.730 10111.    
 4261 8571 -2.441 10117.    
 4262 8571 -2.061 10125.    
 4219 8383 -4.136 10127.    
 4263 8571 -1.883 10129.    
 4221 8382 -4.551 10139.    
 4233 8426 -4.017 10142.    
 4222 8382 -4.555 10153.    
 4188 8362 -3.804 10174.    
 4249 8465 -3.548 10179.    
 4250 8465 -3.917 10190.    
 4191 8368 -3.398 10197.    
 4244 8448 -4.157 10204.    
 4246 8449 -3.255 10211.    
 4234 8427 -2.010 10217.    
 4242 8434 -3.907 10223.    
 4234 8426 -2.486 10249.    
 4249 8460 -3.543 10251.    
 4241 8433 -3.783 10260.    
 4250 8460 -2.871 10262.    
 4234 8425 -3.469 10281.    
 4221 8381 -4.605 10283.    
 4233 8423 -2.917 10290.    
 4248 8458 -2.755 10307.    
 4235 8426 -2.074 10325.    
 4249 8458 -4.304 10337.    
 4222 8380 -4.909 10343.    
 4235 8425 -2.410 10358.    
 4235 8424 -3.376 10383.    
 4193 8368 -2.974 10392.    
 4234 8423 -3.437 10401.    
 4195 8368 -4.273 10402.    
 4236 8425 -2.076 10407.    
 8422 4306 -3.404 10413.    
 4196 8368 -3.207 10417.    
 4246 8446 -3.676 10417.    
 4259 8567 -3.019 10425.    
 4236 8424 -2.354 10432.    
 4191 8365 -3.481 10437.    
 4260 8567 -3.156 10444.    
 4237 8424 -1.896 10456.    
 4194 8367 -1.903 10486.    
 8347 4247 -3.825 10508.    
 4197 8367 -2.380 10510.    
 8422 4305 -3.390 10515.    
 4241 8431 -3.114 10537.    
 4241 8430 -4.146 10542.    
 4246 8442 -3.584 10545.    
 4195 8366 -3.106 10550.    
 4260 8566 -3.132 10554.    
 4248 8451 -3.267 10555.    
 4242 8430 -3.130 10557.    
 4242 8429 -4.197 10563.    
 8423 4307 -2.965 10568.    
 4262 8566 -2.897 10577.    
 4191 8364 -3.572 10580.    
 4244 8441 -3.674 10581.    
 4250 8453 -3.960 10586.    
 4246 8441 -3.856 10610.    
 4243 8429 -3.084 10619.    
 4244 8440 -3.564 10619.    
 8348 4247 -3.339 10641.    
 4194 8365 -2.536 10648.    
 4196 8365 -2.180 10668.    
 4197 8365 -2.199 10672.    
 4191 8363 -3.305 10714.    
 8426 4307 -3.663 10730.    
 4235 8422 -3.304 10747.    
 8427 4307 -2.574 10765.    
 4255 8548 -1.935 10776.    
 4254 8547 -1.459 10777.    
 4257 8549 -1.883 10778.    
 4256 8548 -1.662 10778.    
 4255 8547 -1.635 10779.    
 4256 8547 -2.003 10781.    
 4258 8549 -1.457 10781.    
 4257 8548 -1.662 10781.    
 4195 8364 -2.039 10801.    
 8349 4247 -3.172 10813.    
 4196 8364 -2.593 10817.    
 4197 8364 -2.365 10822.    
 8426 4306 -2.658 10842.    
 8409 4296 -3.547 10869.    
 4233 8418 -3.142 10874.    
 8427 4306 -3.264 10878.    
 8350 4247 -1.260 10906.    
 8425 4305 -2.775 10916.    
 4193 8363 -1.858 10930.    
 4195 8363 -3.088 10941.    
 4196 8363 -2.375 10957.    
 8343 4240 -4.449 11016.    
 8351 4247 -1.274 11016.    
 4195 8362 -2.407 11045.    
 4236 8420 -3.315 11049.    
 4234 8417 -3.410 11067.    
 8409 4290 -4.007 11073.    
 8343 4239 -4.616 11076.    
 4237 8420 -3.159 11076.    
 8411 4292 -4.136 11083.    
 8344 4239 -4.159 11087.    
 8409 4289 -3.745 11098.    
 8345 4238 -6.053 11101.    
 4251 8457 -3.278 11114.    
 4261 8563 -4.420 11117.    
 4198 8367 -5.928 11130.    
 4248 8446 -4.308 11147.    
 8353 4247 -1.291 11157.    
 4250 8446 -3.055 11195.    
 4199 8367 -4.770 11209.    
 4248 8445 -2.816 11229.    
 4233 8411 -3.885 11282.    
 4248 8442 -3.723 11293.    
 8345 4237 -1.359 11311.    
 8344 4236 -1.708 11332.    
 8345 4236 -1.009 11339.    
 4250 8442 -2.748 11342.    
 8343 4235 -2.205 11379.    
 8344 4235 -1.122 11391.    
 8345 4235 -1.122 11398.    
 8343 4234 -1.367 11473.    
 8344 4234 -0.925 11485.    
 4236 8412 -4.158 11516.    
 8436 4305 -3.718 11539.    
 4242 8417 -5.820 11557.    
 8438 4305 -4.358 11559.    
 8382 4285 -5.304 11573.    
 4253 8487 -5.556 11577.    
 4231 8402 -5.595 11584.    
 8343 4233 -0.790 11611.    
 4235 8408 -4.396 11689.    
 8420 4290 -3.448 11694.    
 4208 8372 -4.371 11750.    
 4203 8365 -4.886 11770.    
 8354 4251 -3.340 11814.    
 4207 8371 -4.148 11849.    
 4202 8364 -5.368 11851.    
 8427 4302 -4.091 11873.    
 4209 8372 -3.063 11908.    
 8377 4282 -1.706 11914.    
 8379 4282 -1.704 11989.    
 4208 8371 -3.022 12001.    
 8346 4236 -2.963 12018.    
 4207 8370 -2.970 12044.    
 8355 4251 -3.549 12047.    
 8380 4282 -1.693 12076.    
 8346 4235 -3.074 12085.    
 4260 8554 -3.451 12085.    
 8347 4236 -4.012 12138.    
 8347 4235 -3.447 12206.    
 8439 4303 -3.129 12213.    
 8423 4292 -4.271 12242.    
 8450 4307 -4.276 12266.    
 8387 4284 -5.481 12277.    
 8380 4281 -4.522 12290.    
 8448 4306 -3.670 12302.    
 4249 8430 -4.340 12311.    
 8347 4234 -3.239 12313.    
 4265 8572 -3.302 12397.    
 8356 4251 -3.887 12406.    
 8434 4302 -4.529 12430.    
 8448 4305 -3.845 12444.    
 8384 4282 -3.612 12446.    
 8348 4234 -4.195 12495.    
 4184 8356 -2.432 12522.    
 4185 8356 -2.578 12533.    
 4258 8531 -2.975 12598.    
 4255 8324 -2.973 12606.    
 4256 8324 -3.013 12609.    
 4257 8324 -3.177 12612.    
 8386 4282 -3.501 12634.    
 4213 8375 -2.569 12651.    
 8348 4233 -3.582 12659.    
 8350 4236 -3.710 12671.    
 8350 4235 -3.126 12745.    
 8453 4306 -4.425 12837.    
 8380 4280 -2.199 12848.    
 8439 4298 -4.306 12856.    
 8350 4234 -2.931 12863.    
 8455 4306 -3.768 12890.    
 4184 8355 -2.624 12910.    
 4185 8355 -3.442 12922.    
 4186 8355 -2.373 12937.    
 4213 8374 -3.307 12947.    
 4214 8374 -2.695 12979.    
 8378 4279 -3.062 13000.    
 4216 8374 -3.110 13014.    
 8351 4234 -3.384 13016.    
 8379 4279 -3.029 13019.    
 8376 4278 -2.893 13065.    
 8377 4278 -1.680 13106.    
 4187 8357 -6.212 13113.    
 8380 4279 -3.026 13123.    
 8376 4277 -1.937 13153.    
 8382 4280 -2.370 13155.    
 8378 4278 -2.141 13177.    
 8376 4276 -1.867 13186.    
 8351 4233 -2.816 13193.    
 8377 4277 -1.495 13194.    
 8379 4278 -1.575 13197.    
 8381 4279 -2.185 13197.    
 4185 8354 -2.533 13201.    
 4186 8354 -2.779 13217.    
 8377 4276 -1.824 13228.    
 4216 8373 -2.653 13244.    
 8378 4277 -1.823 13266.    
 8379 4277 -2.147 13286.    
 8381 4278 -1.850 13379.    
 8382 4279 -1.697 13443.    
 8385 4280 -1.553 13453.    
 4212 8371 -3.452 13598.    
 8467 4306 -3.369 13601.    
 4180 8352 -5.245 13684.    
 8383 4277 -2.044 13727.    
 8384 4278 -2.147 13753.    
 8386 4279 -2.462 13785.    
 4233 8405 -3.897 13789.    
 8387 4280 -2.514 13791.    
 8462 4304 -3.361 13791.    
 4251 8423 -1.983 13828.    
 4211 8370 -3.429 13850.    
 4261 8545 -2.576 13874.    
 8384 4276 -2.734 13887.    
 4261 8544 -3.624 13951.    
 4262 8544 -4.297 13967.    
 8386 4278 -3.235 13983.    
 8343 4231 -6.299 13987.    
 4234 8405 -4.974 13988.    
 8344 4231 -5.421 14005.    
 4182 8349 -6.346 14029.    
 4183 8349 -5.616 14030.    
 8445 4291 -5.980 14043.    
 8386 4277 -2.678 14084.    
 8387 4279 -2.346 14108.    
 8388 4280 -1.973 14196.    
 8397 4282 -4.537 14223.    
 4205 8369 -2.415 14253.    
 4268 8567 -3.718 14275.    
 4269 8568 -3.644 14282.    
 4194 8361 -5.512 14286.    
 4251 8422 -1.956 14299.    
 8387 4278 -2.749 14316.    
 4206 8369 -2.238 14348.    
 8393 4281 -1.657 14405.    
 4234 8399 -3.814 14410.    
 8477 4307 -3.043 14420.    
 8478 4307 -3.542 14430.    
 8395 4281 -1.658 14439.    
 8408 4286 -1.521 14468.    
 8396 4281 -1.659 14483.    
 8388 4279 -2.847 14532.    
 4235 8399 -4.538 14561.    
 4233 8395 -4.107 14582.    
 8409 4286 -1.494 14597.    
 8476 4306 -3.080 14616.    
 4194 8360 -4.526 14650.    
 8406 4284 -6.101 14681.    
 4261 8540 -4.214 14682.    
 8455 4299 -5.503 14690.    
 8458 4302 -5.450 14700.    
 8479 4306 -5.785 14728.    
 4251 8420 -1.842 14738.    
 8411 4286 -1.475 14753.    
 8488 4307 -2.040 14792.    
 4234 8395 -4.596 14805.    
 4234 8393 -4.500 14840.    
 4204 8368 -2.041 14846.    
 4205 8368 -2.780 14874.    
 4235 8397 -3.989 14877.    
 8379 4273 -3.606 14878.    
 8379 4272 -3.490 14881.    
 8379 4271 -3.630 14882.    
 8489 4307 -3.952 14907.    
 8469 4303 -3.774 14910.    
 4264 8554 -1.241 14927.    
 8485 4306 -2.026 14943.    
 4206 8368 -2.506 14979.    
 8488 4306 -1.564 15007.    
 8380 4274 -3.190 15008.    
 4237 8397 -4.516 15029.    
 8465 4302 -4.779 15032.    
 8457 4299 -5.227 15039.    
 4236 8393 -4.939 15103.    
 8484 4305 -1.906 15122.    
 8489 4306 -3.235 15125.    
 8493 4307 -1.809 15151.    
 8485 4305 -1.623 15154.    
 8494 4307 -2.278 15177.    
 4205 8366 -2.486 15179.    
 4260 8537 -2.845 15180.    
 4261 8539 -2.903 15189.    
 4259 8536 -3.161 15200.    
 4262 8538 -2.842 15212.    
 4263 8539 -2.399 15216.    
 8488 4305 -2.067 15219.    
 4262 8537 -2.647 15226.    
 4260 8536 -2.773 15242.    
 4196 8358 -4.810 15242.    
 8495 4307 -1.521 15243.    
 8491 4306 -1.980 15244.    
 4197 8358 -5.238 15252.    
 8484 4304 -1.679 15323.    
 8485 4304 -2.226 15355.    
 8486 4304 -1.556 15360.    
 4259 8535 -2.550 15365.    
 8490 4305 -2.115 15367.    
 8493 4306 -2.867 15376.    
 4195 8357 -5.042 15379.    
 4260 8535 -3.043 15407.    
 4196 8357 -5.417 15410.    
 4268 8564 -3.080 15427.    
 8491 4305 -2.565 15463.    
 8495 4306 -2.076 15471.    
 4206 8365 -5.135 15503.    
 8490 4304 -2.099 15574.    
 8493 4305 -2.666 15600.    
 4269 8565 -2.441 15647.    
 4251 8411 -0.547 15680.    
 8420 4286 -2.630 15697.    
 4205 8364 -4.860 15704.    
 8343 4228 -4.412 15804.    
 4206 8364 -4.298 15821.    
 4251 8409 -0.678 15860.    
 8478 4303 -3.962 15913.    
 4234 8388 -3.671 15917.    
 8338 4221 -6.084 15932.    
 8343 4227 -5.439 15937.    
 8397 4278 -2.064 15956.    
 8344 4227 -5.013 15959.    
 4204 8363 -3.284 15968.    
 8498 4306 -2.990 15974.    
 4205 8363 -4.012 16002.    
 4251 8408 -0.909 16015.    
 8399 4279 -2.247 16066.    
 8354 4237 -3.482 16073.    
 4270 8565 -1.783 16090.    
 4206 8363 -3.628 16122.    
 8354 4236 -3.137 16131.    
 8397 4276 -2.394 16137.    
 4233 8387 -3.016 16184.    
 8405 4280 -2.413 16187.    
 8497 4305 -2.692 16195.    
 8498 4305 -2.735 16215.    
 4205 8362 -3.247 16224.    
 8354 4235 -3.266 16250.    
 4260 8532 -2.713 16278.    
 8500 4305 -3.345 16306.    
 8387 4274 -4.085 16310.    
 8387 4273 -4.326 16316.    
 8360 4249 -5.623 16316.    
 8399 4278 -2.737 16336.    
 4262 8530 -2.682 16402.    
 4184 8353 -6.605 16404.    
 8497 4304 -2.385 16425.    
 4268 8308 -3.194 16435.    
 8399 4277 -2.459 16474.    
 8355 4236 -3.926 16568.    
 4260 8528 -2.311 16570.    
 4198 8358 -6.359 16593.    
 4261 8528 -1.997 16603.    
 8405 4279 -2.127 16625.    
 4247 8406 -4.077 16627.    
 4235 8387 -3.741 16656.    
 4233 8385 -2.576 16675.    
 8355 4235 -3.351 16695.    
 8361 4249 -4.878 16792.    
 8355 4234 -3.180 16897.    
 4266 8554 -0.982 16966.    
 4227 8375 -4.854 17087.    
 4200 8357 -7.170 17099.    
 4233 8382 -3.457 17157.    
 4267 8554 -2.545 17189.    
 4184 8349 -7.204 17210.    
 8483 4299 -4.521 17215.    
 4228 8375 -4.439 17242.    
 4236 8386 -4.156 17265.    
 4203 8359 -6.418 17272.    
 4278 8578 -1.573 17325.    
 4279 8580 -0.671 17345.    
 4259 8524 -2.763 17352.    
 8406 4279 -2.810 17377.    
 4277 8576 -0.775 17402.    
 4260 8524 -3.028 17406.    
 4191 8356 -5.096 17442.    
 4234 8382 -2.697 17467.    
 4280 8582 -0.409 17502.    
 4276 8575 -0.638 17508.    
 4268 8554 -2.149 17527.    
 4278 8576 -0.922 17558.    
 4277 8575 -0.760 17568.    
 8356 4234 -3.730 17612.    
 4279 8578 -1.365 17640.    
 4184 8348 -5.149 17664.    
 4185 8348 -5.402 17686.    
 4233 8380 -1.302 17709.    
 4278 8575 -2.592 17727.    
 4236 8383 -3.643 17832.    
 4280 8580 -0.955 17850.    
 4279 8576 -2.690 17882.    
 8481 4293 -3.819 17894.    
 4234 8381 -3.137 17900.    
 4278 8574 -0.898 17935.    
 8356 4233 -3.193 17938.    
 4210 8369 -2.593 18002.    
 4194 8356 -3.035 18038.    
 4234 8380 -1.769 18039.    
 4184 8347 -5.087 18041.    
 4185 8347 -5.505 18064.    
 8494 4298 -3.413 18071.    
 4260 8329 -3.554 18081.    
 8489 4297 -3.681 18088.    
 4186 8347 -4.659 18094.    
 4277 8572 -1.970 18095.    
 4196 8356 -3.777 18095.    
 4197 8356 -3.227 18108.    
 4261 8329 -1.715 18121.    
 4235 8381 -2.827 18133.    
 4211 8369 -3.559 18141.    
 4262 8329 -1.282 18148.    
 4212 8369 -2.810 18150.    
 4280 8578 -1.047 18163.    
 4234 8379 -1.490 18238.    
 4276 8571 -1.026 18261.    
 4279 8574 -1.331 18273.    
 4235 8380 -2.434 18275.    
 8393 4273 -0.745 18295.    
 8393 4272 -0.522 18300.    
 8393 4271 -0.566 18302.    
 8395 4274 -0.447 18341.    
 8395 4273 -0.553 18349.    
 8395 4272 -0.970 18354.    
 8396 4275 -0.273 18395.    
 8396 4274 -0.779 18412.    
 8396 4273 -1.508 18420.    
 4235 8379 -1.536 18480.    
 4278 8571 -1.052 18498.    
 4247 8396 -0.206 18585.    
 4279 8572 -0.987 18614.    
 4236 8379 -1.883 18637.    
 4247 8395 -0.317 18658.    
 4235 8377 -1.777 18661.    
 4247 8393 -0.465 18714.    
 8374 4260 -4.230 18728.    
 8490 4290 -5.048 18729.    
 4235 8376 -4.269 18744.    
 4191 8354 -5.645 18765.    
 8493 4294 -3.542 18777.    
 4236 8377 -1.433 18821.    
 4280 8574 -1.695 18834.    
 4195 8355 -3.468 18870.    
 4237 8377 -1.298 18900.    
 4196 8355 -3.289 18917.    
 4197 8355 -3.522 18932.    
 4237 8376 -2.704 18985.    
 4280 8573 -3.289 19030.    
 4180 8342 -6.239 19036.    
 4251 8407 -3.259 19074.    
 4211 8368 -2.951 19160.    
 4212 8368 -3.091 19170.    
 8408 4282 -3.164 19240.    
 8375 4260 -4.124 19384.    
 4193 8354 -3.174 19436.    
 8375 4259 -3.462 19451.    
 4195 8354 -3.415 19471.    
 4279 8568 -1.003 19521.    
 4196 8354 -4.040 19522.    
 4238 8376 -4.561 19607.    
 4211 8366 -3.344 19668.    
 4278 8567 -0.995 19671.    
 4266 8547 -2.881 19677.    
 8411 4282 -3.630 19747.    
 8387 4268 -5.144 19749.    
 8405 4274 -4.679 19771.    
 8405 4273 -5.122 19780.    
 8515 4307 -4.001 19784.    
 8377 4265 -0.886 19846.    
 4277 8566 -0.863 19860.    
 4213 8371 -4.346 19894.    
 4267 8548 -3.283 19968.    
 4214 8371 -5.610 19971.    
 4267 8547 -3.001 19977.    
 8388 4269 -5.078 19991.    
 8517 4307 -4.336 19995.    
 8379 4265 -0.873 20055.    
 4278 8566 -1.447 20063.    
 4279 8567 -0.981 20078.    
 4231 8375 -4.130 20089.    
 4280 8568 -0.721 20163.    
 4184 8344 -3.855 20174.    
 4185 8345 -3.679 20180.    
 4185 8344 -3.884 20203.    
 4184 8343 -3.119 20210.    
 4186 8345 -3.938 20217.    
 4185 8343 -3.280 20239.    
 4186 8344 -3.143 20240.    
 8380 4265 -0.845 20301.    
 4264 8535 -4.719 20345.    
 4210 8364 -4.154 20381.    
 4268 8549 -3.759 20414.    
 4268 8548 -2.932 20426.    
 4268 8547 -3.291 20435.    
 4247 8388 -4.698 20459.    
 8381 4265 -4.071 20480.    
 4279 8566 -2.039 20487.    
 8329 4306 -3.407 20493.    
 4214 8370 -4.541 20530.    
 4211 8364 -4.678 20559.    
 4212 8364 -4.077 20571.    
 8357 4237 -3.528 20599.    
 4182 8340 -6.508 20673.    
 4183 8340 -6.615 20674.    
 8357 4236 -3.499 20693.    
 8522 4306 -4.488 20715.    
 4230 8374 -4.662 20724.    
 8523 4306 -4.071 20726.    
 4223 8372 -4.483 20746.    
 4232 8374 -4.200 20848.    
 8357 4235 -4.300 20890.    
 8329 4305 -3.442 20892.    
 8360 4242 -5.841 20924.    
 4251 8405 -2.871 20981.    
 8524 4307 -3.008 21001.    
 8358 4236 -3.463 21004.    
 8360 4240 -5.351 21017.    
 4269 8549 -3.037 21041.    
 4269 8548 -2.833 21054.    
 4211 8363 -3.647 21072.    
 4212 8363 -3.855 21084.    
 8358 4235 -3.553 21207.    
 8396 4270 -1.530 21343.    
 8384 4265 -2.734 21368.    
 4211 8362 -3.694 21459.    
 4274 8554 -1.785 21563.    
 4275 8554 -1.803 21587.    
 8359 4235 -3.383 21699.    
 8343 4222 -4.788 21779.    
 8343 4221 -5.347 21843.    
 4270 8549 -2.485 21850.    
 4181 8338 -6.888 21884.    
 8344 4221 -4.884 21885.    
 8411 4280 -1.476 21898.    
 8386 4265 -2.589 21930.    
 4251 8399 -2.988 21946.    
 4264 8531 -1.588 21956.    
 8345 4219 -5.568 21970.    
 4264 8324 -1.460 22014.    
 8359 4234 -3.662 22042.    
 4277 8562 -1.569 22069.    
 8395 4269 -1.848 22073.    
 4276 8561 -1.360 22100.    
 4278 8563 -1.686 22141.    
 8396 4269 -2.182 22176.    
 4277 8561 -1.945 22195.    
 8409 4279 -1.291 22342.    
 4279 8564 -1.600 22435.    
 8422 4282 -3.874 22483.    
 8408 4278 -1.362 22554.    
 8359 4233 -4.914 22555.    
 4279 8563 -2.301 22658.    
 4251 8397 -3.540 22672.    
 8411 4279 -1.768 22709.    
 8393 4268 -2.235 22725.    
 8360 4234 -3.301 22748.    
 8387 4265 -2.713 22759.    
 8395 4268 -2.044 22808.    
 8408 4277 -1.371 22816.    
 8528 4306 -2.388 22856.    
 8409 4278 -1.324 22868.    
 8408 4276 -1.781 22917.    
 8532 4307 -2.037 22917.    
 8396 4268 -3.001 22918.    
 4251 8393 -3.859 22958.    
 4280 8565 -1.536 22994.    
 8409 4277 -2.029 23138.    
 8411 4278 -2.363 23254.    
 4280 8564 -2.564 23287.    
 8360 4233 -3.900 23295.    
 8393 4267 -2.067 23320.    
 8526 4304 -2.381 23369.    
 8395 4267 -2.517 23407.    
 4261 8503 -3.518 23522.    
 4280 8563 -3.846 23527.    
 4285 8573 -3.323 23721.    
 8393 4266 -2.145 23743.    
 4284 8570 -3.216 23749.    
 4259 8500 -2.338 23798.    
 4260 8500 -3.020 23899.    
 4261 8500 -3.115 23969.    
 8457 4286 -3.391 24050.    
 4260 8498 -2.302 24096.    
 4247 8380 -3.362 24103.    
 4261 8498 -2.794 24166.    
 8361 4233 -3.222 24278.    
 4247 8379 -3.716 24460.    
 4284 8568 -5.289 24594.    
 4285 8570 -5.466 24600.    
 4279 8308 -4.667 24633.    
 8346 4220 -7.370 24653.    
 8535 4307 -2.196 24897.    
 4259 8495 -2.576 25224.    
 4260 8495 -1.743 25338.    
 8536 4307 -1.533 25343.    
 4285 8569 -2.898 25366.    
 4259 8494 -1.664 25407.    
 4259 8493 -4.222 25480.    
 4284 8567 -5.009 25485.    
 4268 8535 -4.497 25502.    
 8535 4306 -2.932 25512.    
 4260 8493 -2.286 25597.    
 4261 8493 -1.971 25676.    
 8420 4278 -2.805 25689.    
 8348 4222 -6.012 25783.    
 8388 4264 -4.628 25890.    
 4260 8491 -3.179 25973.    
 8536 4306 -1.931 25979.    
 4265 8524 -1.287 26003.    
 4261 8491 -2.069 26055.    
 4273 8548 -1.995 26109.    
 4271 8547 -1.783 26109.    
 4262 8491 -1.680 26110.    
 4272 8547 -1.962 26113.    
 4273 8547 -2.335 26123.    
 4274 8548 -2.004 26124.    
 4275 8549 -1.817 26140.    
 8537 4306 -1.656 26161.    
 4259 8489 -3.013 26202.    
 8442 4285 -2.279 26272.    
 4260 8489 -2.271 26325.    
 4261 8490 -2.914 26332.    
 4262 8490 -1.808 26388.    
 8422 4279 -1.894 26403.    
 4263 8490 -1.343 26413.    
 4259 8488 -2.899 26564.    
 8536 4305 -2.607 26623.    
 4261 8488 -1.925 26778.    
 8537 4305 -1.884 26814.    
 8539 4305 -1.683 26871.    
 8441 4284 -2.325 26893.    
 4260 8485 -2.797 26894.    
 8423 4280 -1.858 26937.    
 4261 8485 -3.065 26982.    
 4262 8485 -1.876 27041.    
 4251 8387 -2.438 27080.    
 4261 8484 -3.400 27084.    
 8518 4292 -3.215 27087.    
 8446 4285 -3.305 27099.    
 4262 8484 -3.363 27142.    
 8422 4278 -3.567 27142.    
 4263 8484 -1.890 27170.    
 4279 8554 -3.575 27170.    
 8397 4265 -3.471 27204.    
 8533 4303 -3.260 27210.    
 4267 8324 -3.555 27314.    
 8442 4284 -3.376 27317.    
 4259 8482 -4.371 27334.    
 4194 8353 -6.615 27368.    
 8537 4304 -2.651 27449.    
 4259 8479 -2.606 27484.    
 8538 4304 -1.500 27498.    
 8539 4304 -1.856 27510.    
 4265 8329 -0.451 27540.    
 4265 8518 -1.203 27609.    
 4260 8479 -1.802 27620.    
 4259 8478  0.036 27817.    
 4259 8477 -0.838 27857.    
 4260 8477 -0.032 27996.    
 4260 8476 -0.579 28025.    
 4260 8475 -1.613 28061.    
 4261 8476 -0.173 28121.    
 4261 8475 -0.554 28158.    
 4261 8473 -1.562 28172.    
 4262 8475 -0.101 28221.    
 4262 8473 -0.402 28235.    
 4194 8351 -4.646 28258.    
 4263 8473  0.074 28265.    
 4259 8471 -2.661 28280.    
 8399 4265 -3.139 28328.    
 4251 8386 -2.440 28356.    
 4196 8351 -6.207 28398.    
 8428 4280 -3.243 28416.    
 4280 8554 -3.761 28430.    
 4197 8351 -5.291 28431.    
 4233 8375 -4.293 28455.    
 8542 4307 -3.822 28457.    
 8443 4283 -2.902 28488.    
 8532 4302 -3.821 28601.    
 8449 4285 -3.062 28603.    
 8353 4223 -6.003 28910.    
 8531 4300 -4.264 29140.    
 4196 8350 -5.008 29155.    
 8367 4250 -5.343 29164.    
 4269 8532 -4.606 29168.    
 4197 8350 -4.856 29190.    
 8528 4299 -4.586 29200.    
 8367 4249 -4.623 29254.    
 4269 8531 -3.934 29284.    
 4234 8375 -4.842 29317.    
 4251 8384 -2.794 29354.    
 8393 4264 -0.517 29355.    
 8395 4264 -0.519 29494.    
 8524 4289 -3.635 29555.    
 8427 4279 -3.854 29617.    
 8396 4264 -0.522 29678.    
 8424 4278 -3.967 29783.    
 8425 4278 -3.169 29992.    
 8531 4299 -4.447 30031.    
 8482 4286 -4.278 30048.    
 8405 4265 -3.165 30116.    
 8424 4277 -3.143 30242.    
 8426 4278 -2.985 30267.    
 4286 8578 -4.290 30356.    
 4188 8345 -6.350 30388.    
 4209 8360 -6.964 30391.    
 8447 4283 -3.599 30404.    
 8424 4276 -3.176 30420.    
 8425 4277 -3.088 30458.    
 8485 4286 -3.700 30767.    
 4184 8338 -7.617 30776.    
 4284 8560 -3.302 30804.    
 4270 8531 -3.444 30875.    
 4194 8348 -5.938 31067.    
 4286 8576 -3.038 31079.    
 4251 8381 -3.715 31214.    
 8545 4306 -3.388 31342.    
 8532 4297 -4.146 31409.    
 8376 4262 -4.274 31413.    
 4213 8369 -4.161 31424.    
 8531 4295 -4.533 31453.    
 4281 8554 -0.983 31605.    
 8377 4263 -1.050 31613.    
 4251 8380 -0.545 31637.    
 8377 4262 -0.700 31650.    
 8377 4261 -0.899 31730.    
 4216 8369 -5.981 31821.    
 4259 8468 -5.171 31849.    
 8544 4305 -2.951 31876.    
 8357 4230 -4.726 32050.    
 8378 4261 -4.048 32148.    
 8379 4262 -1.398 32185.    
 4251 8379 -0.715 32256.    
 4228 8372 -4.266 32261.    
 8379 4261 -0.898 32268.    
 8379 4260 -0.596 32395.    
 4197 8347 -5.569 32477.    
 8358 4232 -5.033 32494.    
 4240 8375 -3.943 32796.    
 4251 8377 -0.951 32812.    
 4241 8375 -4.811 32877.    
 8451 4284 -3.633 32878.    
 8380 4261 -1.981 32911.    
 8380 4260 -1.034 33043.    
 4193 8346 -5.555 33070.    
 4285 8558 -3.304 33085.    
 8369 4248 -5.699 33155.    
 4195 8346 -5.426 33174.    
 8380 4259 -0.446 33240.    
 4261 8466 -4.057 33242.    
 4196 8346 -5.463 33321.    
 4262 8466 -3.471 33331.    
 4286 8572 -1.875 33358.    
 4260 8464 -4.515 33480.    
 8457 4285 -4.074 33492.    
 8381 4260 -3.981 33518.    
 4227 8371 -4.399 33621.    
 8381 4259 -3.665 33720.    
 4268 8329 -4.488 33767.    
 8458 4285 -3.447 33792.    
 4237 8373 -5.310 33816.    
 8372 4253 -4.279 33931.    
 4261 8461 -2.175 33996.    
 4259 8460 -3.478 34064.    
 4262 8461 -1.771 34089.    
 4263 8461 -1.643 34132.    
 4286 8571 -1.719 34151.    
 4238 8374 -2.965 34202.    
 8365 4246 -5.021 34401.    
 4260 8459 -1.829 34487.    
 4261 8459 -2.028 34632.    
 4262 8459 -2.277 34728.    
 8460 4285 -2.639 34741.    
 8456 4284 -3.636 34820.    
 4214 8368 -4.182 34846.    
 8383 4262 -4.016 34904.    
 4226 8370 -4.676 34983.    
 4285 8308 -4.201 34999.    
 4216 8368 -4.440 35097.    
 8382 4260 -4.851 35151.    
 8407 4265 -3.475 35164.    
 4219 8369 -5.097 35226.    
 4260 8458 -4.032 35249.    
 4220 8369 -4.345 35262.    
 4259 8457 -1.736 35356.    
 4221 8369 -4.153 35375.    
 8497 4286 -2.814 35383.    
 8498 4286 -2.203 35482.    
 8458 4284 -2.769 35542.    
 4260 8457 -2.241 35581.    
 8384 4262 -2.565 35706.    
 4238 8373 -2.387 35840.    
 8500 4286 -2.209 35916.    
 4277 8545 -3.344 35973.    
 8438 4277 -4.205 36050.    
 8459 4284 -4.454 36351.    
 8456 4283 -3.019 36491.    
 4277 8544 -3.706 36494.    
 8406 4264 -4.446 36550.    
 8537 4296 -4.826 36620.    
 4285 8555 -4.430 36644.    
 4278 8545 -3.657 36645.    
 4216 8366 -4.210 36839.    
 4282 8552 -4.716 36893.    
 4191 8345 -4.746 36907.    
 4191 8344 -4.786 36984.    
 4191 8343 -5.793 37105.    
 8386 4262 -3.022 37303.    
 8468 4285 -4.460 37393.    
 8386 4261 -2.619 37415.    
 8464 4284 -2.880 37542.    
 4213 8365 -4.952 37548.    
 8386 4260 -2.485 37586.    
 4259 8454 -4.102 37670.    
 4260 8455 -4.344 37702.    
 8446 4280 -3.900 37724.    
 4214 8365 -5.745 37822.    
 4259 8453 -4.443 37908.    
 8470 4285 -3.557 37936.    
 8537 4293 -4.496 38018.    
 8537 4292 -3.606 38086.    
 4286 8567 -2.964 38374.    
 8467 4284 -4.398 38566.    
 8440 4278 -4.335 38569.    
 4263 8452 -4.433 38664.    
 8505 4286 -3.193 38796.    
 8538 4290 -3.471 39138.    
 8539 4290 -3.579 39162.    
 4219 8368 -3.684 39284.    
 4220 8368 -3.632 39329.    
 8463 4283 -2.889 39391.    
 4213 8364 -4.976 39466.    
 8468 4284 -3.881 39547.    
 4193 8345 -3.115 39596.    
 4195 8345 -3.208 39745.    
 4195 8344 -3.859 39834.    
 4194 8343 -3.122 39907.    
 4196 8345 -3.501 39956.    
 4196 8344 -3.423 40046.    
 4273 8531 -3.729 40075.    
 8387 4260 -2.854 40089.    
 4197 8344 -3.238 40112.    
 4274 8531 -3.052 40113.    
 4265 8505 -2.298 40137.    
 4196 8343 -4.696 40188.    
 4275 8531 -2.612 40196.    
 4272 8324 -2.650 40244.    
 4197 8343 -3.789 40254.    
 4273 8324 -2.685 40269.    
 4274 8324 -2.835 40307.    
 8387 4259 -2.495 40379.    
 4221 8367 -4.066 40778.    
 8445 4278 -4.126 40819.    
 8552 4306 -3.772 40895.    
 8457 4282 -2.068 40918.    
 4222 8367 -3.072 41003.    
 8443 4277 -5.053 41135.    
 4223 8367 -2.389 41264.    
 4214 8363 -4.791 41733.    
 4216 8363 -4.431 42093.    
 4259 8450 -4.309 42157.    
 4264 8495 -4.778 42169.    
 8551 4305 -3.848 42169.    
 8369 4245 -7.386 42219.    
 4244 8375 -3.980 42374.    
 4281 8549 -1.307 42423.    
 8459 4282 -1.904 42467.    
 4281 8548 -1.418 42476.    
 4281 8547 -1.564 42513.    
 4246 8375 -3.104 42839.    
 4220 8365 -3.699 43161.    
 4221 8365 -2.875 43332.    
 8461 4282 -1.816 43464.    
 4222 8365 -2.506 43587.    
 4261 8449 -3.957 43708.    
 4265 8500 -1.136 43769.    
 8362 4236 -3.889 43843.    
 8471 4285 -5.269 43896.    
 4231 8372 -4.584 43899.    
 8463 4282 -5.110 43975.    
 8388 4259 -4.206 44063.    
 8364 4238 -7.204 44128.    
 8447 4278 -4.117 44233.    
 4265 8498 -1.222 44432.    
 4265 8497 -2.028 44587.    
 4280 8542 -3.609 44726.    
 8478 4285 -4.436 45062.    
 4261 8447 -4.981 45089.    
 8363 4237 -4.273 45097.    
 4282 8548 -4.278 45243.    
 4282 8547 -4.599 45286.    
 4263 8447 -4.828 45327.    
 4206 8354 -5.893 45485.    
 8363 4236 -4.799 45552.    
 4219 8364 -3.561 45656.    
 4220 8364 -2.815 45716.    
 4244 8374 -3.315 45888.    
 4221 8364 -2.634 45907.    
 4276 8539 -1.810 45972.    
 4245 8374 -4.542 46023.    
 8549 4302 -2.972 46035.    
 4277 8539 -3.267 46384.    
 4277 8538 -2.310 46418.    
 8363 4235 -4.153 46517.    
 4277 8537 -2.057 46558.    
 4280 8541 -4.267 47027.    
 4211 8357 -5.184 47429.    
 4274 8524 -4.748 47432.    
 4212 8357 -5.915 47491.    
 4278 8539 -2.259 47508.    
 4232 8371 -4.755 47635.    
 4278 8537 -2.819 47690.    
 4261 8446 -4.133 47756.    
 8549 4300 -3.027 47757.    
 8364 4236 -4.278 48147.    
 4264 8483 -0.091 48177.    
 4219 8363 -2.832 48264.    
 4278 8536 -2.269 48304.    
 4220 8363 -2.786 48331.    
 4264 8482 -0.203 48418.    
 4264 8481 -0.351 48676.    
 4245 8373 -3.882 49040.    
 8364 4235 -4.420 49228.    
 4262 8445 -5.232 49486.    
 4279 8537 -2.648 50157.    
 8549 4299 -3.696 50197.    
 4230 8370 -4.767 50206.    
 4219 8362 -2.932 50342.    
 8453 4279 -5.080 50663.    
 4279 8536 -2.652 50837.    
 4282 8545 -4.234 50884.    
 4232 8370 -5.767 50944.    
 8457 4280 -2.775 51375.    
 8455 4279 -4.577 51505.    
 8354 4220 -6.621 51681.    
 4254 8409 -5.163 51705.    
 8368 4238 -5.880 52332.    
 8365 4235 -4.428 52578.    
 4260 8440 -4.329 52686.    
 4279 8535 -2.178 52729.    
 8494 4285 -4.525 53242.    
 4265 8488 -2.447 54140.    
 8408 4265 -0.761 54271.    
 8395 4261 -4.905 54718.    
 4265 8485 -2.421 54982.    
 8395 4260 -4.044 55084.    
 8456 4279 -5.602 55089.    
 8452 4276 -4.644 55242.    
 4280 8536 -2.470 55431.    
 8395 4259 -3.597 55632.    
 8397 4261 -3.991 55908.    
 8457 4279 -2.959 56072.    
 8409 4265 -0.750 56132.    
 4266 8498 -5.387 56507.    
 8548 4294 -4.681 56570.    
 8458 4279 -4.621 56917.    
 8547 4293 -3.541 56967.    
 8548 4293 -4.341 57036.    
 8547 4292 -3.724 57121.    
 8548 4292 -3.923 57189.    
 8368 4237 -5.815 57344.    
 4265 8482 -3.230 57437.    
 4280 8535 -2.221 57687.    
 4265 8481 -3.499 57801.    
 4267 8500 -5.554 57888.    
 8365 4233 -4.606 57907.    
 8411 4265 -0.758 58511.    
 4248 8375 -3.324 58617.    
 8459 4279 -2.212 59022.    
 8367 4234 -4.738 59325.    
 8457 4278 -2.936 59513.    
 4277 8530 -1.821 59628.    
 8368 4235 -4.812 59661.    
 4250 8375 -2.559 59962.    
 8547 4289 -3.708 60021.    
 4260 8438 -4.008 60029.    
 4265 8475 -5.082 60092.    
 4184 8335 -7.507 60297.    
 4261 8438 -3.321 60470.    
 8399 4261 -3.420 60876.    
 8399 4260 -3.257 61329.    
 4278 8530 -2.146 61498.    
 8481 4282 -3.469 61544.    
 4276 8529 -2.291 61811.    
 8482 4282 -3.336 61963.    
 8500 4285 -3.366 62035.    
 8367 4233 -4.080 63197.    
 4284 8545 -4.553 63731.    
 4277 8527 -1.513 64486.    
 4279 8532 -0.977 64538.    
 4278 8528 -0.751 64755.    
 8459 4277 -2.417 64929.    
 8461 4278 -1.767 65057.    
 8485 4282 -2.575 65098.    
 4279 8531 -2.887 65108.    
 4276 8526 -1.534 65310.    
 4248 8374 -2.654 65562.    
 4279 8324 -3.969 65621.    
 4279 8530 -3.090 65663.    
 8515 4286 -6.227 65957.    
 4277 8526 -1.927 66145.    
 8488 4282 -2.715 66320.    
 4278 8527 -1.666 66679.    
 8563 4307 -3.058 66688.    
 8427 4269 -6.901 66778.    
 8461 4277 -1.703 67290.    
 8481 4281 -0.363 67529.    
 8482 4281 -0.366 68034.    
 8461 4276 -2.076 68177.    
 8483 4281 -0.369 68514.    
 4279 8528 -1.246 69389.    
 8355 4213 -6.357 70185.    
 8405 4260 -3.657 70374.    
 8466 4277 -4.729 70452.    
 8405 4259 -3.176 71270.    
 8563 4306 -2.810 71284.    
 8565 4307 -3.141 71375.    
 4279 8527 -3.393 71603.    
 4267 8491 -5.310 71768.    
 8485 4281 -4.606 71833.    
 4280 8532 -1.769 72126.    
 4280 8531 -3.538 72839.    
 8561 4305 -2.937 72896.    
 8554 4302 -2.946 73237.    
 4280 8324 -3.806 73482.    
 8493 4282 -3.875 74204.    
 4282 8539 -3.519 74556.    
 4268 8493 -5.625 74756.    
 4282 8537 -2.896 75004.    
 4264 8459 -5.234 75502.    
 4277 8525 -3.836 76018.    
 8369 4234 -5.116 76271.    
 8563 4305 -2.959 76351.    
 8370 4248 -3.655 76434.    
 4286 8554 -3.273 76575.    
 4283 8540 -3.326 76684.    
 8554 4300 -2.894 77693.    
 8450 4273 -6.777 78107.    
 4280 8528 -3.119 78239.    
 8379 4256 -4.131 78515.    
 8379 4255 -4.025 78620.    
 8379 4254 -4.153 78691.    
 4194 8341 -8.041 78951.    
 4278 8525 -3.396 79084.    
 8562 4304 -3.029 79386.    
 4259 8428 -2.940 79637.    
 4278 8524 -2.347 79721.    
 4266 8481 -2.500 80056.    
 8471 4280 -4.391 80724.    
 4259 8427 -3.784 80951.    
 4284 8541 -3.563 81117.    
 8524 4286 -2.796 81743.    
 4260 8427 -3.015 82139.    
 8380 4257 -3.723 82282.    
 8380 4256 -3.899 82436.    
 8380 4255 -4.367 82552.    
 8371 4250 -3.821 82630.    
 4259 8426 -4.046 83006.    
 8356 4214 -6.954 83064.    
 4291 8580 -5.808 83533.    
 4285 8542 -3.443 83575.    
 8476 4280 -3.315 84127.    
 8477 4280 -2.244 84387.    
 8478 4280 -1.477 84756.    
 4268 8488 -5.124 84928.    
 4261 8426 -3.145 85128.    
 4267 8481 -2.635 85265.    
 4284 8540 -3.523 85286.    
 8371 4248 -2.946 85328.    
 8495 4281 -5.087 85926.    
 8552 4289 -5.741 85931.    
 4295 8582 -6.449 86099.    
 4279 8525 -5.958 86107.    
 8406 4260 -6.192 86148.    
 8506 4284 -4.855 86503.    
 4279 8524 -2.471 86863.    
 4226 8369 -5.747 86907.    
 4261 8425 -3.571 87383.    
 4297 8582 -4.616 87457.    
 4262 8425 -3.113 87997.    
 8479 4280 -4.171 88005.    
 4289 8578 -4.135 88175.    
 4227 8369 -5.780 88488.    
 4294 8580 -4.360 88744.    
 8482 4280 -3.715 89573.    
 8497 4282 -1.978 89920.    
 4267 8475 -5.519 90345.    
 8498 4282 -1.375 90557.    
 4276 8518 -1.194 90823.    
 8422 4265 -2.174 91493.    
 4277 8329 -1.218 91681.    
 4281 8534 -2.764 92004.    
 4277 8518 -1.276 92446.    
 4265 8463 -4.660 92515.    
 8500 4282 -1.407 93443.    
 4259 8423 -2.437 94127.    
 4260 8423 -2.895 95737.    
 8554 4296 -3.029 95787.    
 8472 4279 -4.541 96116.    
 4278 8329 -1.136 96178.    
 8554 4295 -3.129 96645.    
 4281 8532 -1.911 96806.    
 4251 8375 -4.169 97259.    
 8476 4279 -1.713 97498.    
 4291 8576 -3.899 97659.    
 8477 4279 -1.288 97848.    
 4281 8531 -0.005 98094.    
 8488 4280 -5.693 98973.    
 4281 8324  0.119 99263.    
 4265 8459 -1.665 99985.    
