 gf0400                                                                          
 gf-cutoff: N/A,  ionization potential (Ky):   75192.0000    
 compr thres: 0.0000
          34          39  number of levels and lines
        0.0 2s2 1S     1    1    1
    21978.3 s2p  3P    1    2    1
    21978.9 s2p  3P    1    3    3
    21978.9 s2p  3P    1   13    3
    21981.3 s2p  3P    1    4    5
    42565.4 s2p  1P    1    5    3
    42565.4 s2p  1P    1   14    3
    52080.9 s3s  3S    1   15    3
    52080.9 s3s  3S    1    6    3
    54677.3 s3s  1S    1    7    1
    54677.3 s3s  1S    1   16    1
    56882.4 2p2 1D     1   17    5
    56882.4 2p2 1D     1    8    5
    58907.4 s3p  3P    1   18    3
    58907.4 s3p  3P    1    9    3
    58907.8 s3p  3P    1   10    5
    58907.8 s3p  3P    1   19    5
    59693.6 2p2 3P     1   20    1
    59695.1 2p2 3P     1   21    3
    59697.1 2p2 3P     1   22    5
    60187.3 s3p  1P    1   23    3
    60187.3 s3p  1P    1   11    3
    62053.7 s3d  3D    1   24    5
    64428.3 s3d  1D    1   25    5
    65245.3 s4s  1S    1   26    1
    65245.3 s4s  1S    1   12    1
    66811.9 s4p  3P    1   27    3
    67034.7 s4p  1P    1   28    3
    68780.9 s4d  1D    1   29    5
    69322.2 s5s  1S    1   30    1
    70120.5 s5p  1P    1   31    3
    71002.3 s5d  1D    1   32    5
    71499.1 2p2 1S     1   33    1
    71746.1 s6p  1P    1   34    3
    1   34 -2.682  1.3938E+03
    1   31 -3.678  1.4261E+03
    1   28 -4.093  1.4918E+03
    1   27 -9.416  1.4967E+03
    1   23 -1.000  1.6615E+03
    1   18-10.420  1.6976E+03
    1   14  0.230  2.3486E+03
    2   24 -0.674  2.4945E+03
    3   24 -0.677  2.4946E+03
    4   24 -0.677  2.4947E+03
    3   22 -0.781  2.6505E+03
    2   21 -0.394  2.6505E+03
    3   21 -1.001  2.6506E+03
    4   22 -0.523  2.6506E+03
    3   20 -0.871  2.6507E+03
    4   21 -1.003  2.6508E+03
    2   15 -1.151  3.3210E+03
    3   15 -1.158  3.3211E+03
    4   15 -1.160  3.3213E+03
    5   33 -0.866  3.4552E+03
    5   32 -1.387  3.5155E+03
    5   30 -2.577  3.7363E+03
    5   29 -1.077  3.8135E+03
    5   26 -2.057  4.4079E+03
    1   13 -8.595  4.5485E+03
    5   25  0.114  4.5727E+03
    5   17 -2.097  6.9827E+03
    7   27 -8.187  8.2386E+03
    5   16 -0.830  8.2541E+03
   11   33 -2.699  8.8379E+03
    6   19 -0.218  1.4644E+04
    6   18 -0.311  1.4645E+04
    7   23 -0.026  1.8144E+04
   11   25 -2.000  2.3573E+04
    7   18 -8.199  2.3633E+04
    8   23 -1.086  3.0250E+04
    9   24 -0.060  3.1775E+04
   10   24 -0.186  3.1779E+04
   12   27 -6.282  6.3817E+04
