 gf0603                                                                          
 gf-cutoff: N/A,  ionization potential (Ky):   520178.000    
 compr thres: 0.0000
          59         180  number of levels and lines
        0.0 2s  2S     1    1    2
    64484.0 2p *2P     1   29    2
    64484.0 2p *2P     1    2    2
    64591.7 2p *2P     1   30    4
    64591.7 2p *2P     1    3    4
   302849.0 3s  2S     1    4    2
   302849.0 3s  2S     1   31    2
   320050.1 3p *2P     1    5    2
   320050.1 3p *2P     1   32    2
   320081.7 3p *2P     1    6    4
   320081.7 3p *2P     1   33    4
   324879.8 3d  2D     1    7    4
   324879.8 3d  2D     1   34    4
   324890.3 3d  2D     1    8    6
   324890.3 3d  2D     1   35    6
   401348.1 4s  2S     1    9    2
   401348.1 4s  2S     1   36    2
   408311.1 4p *2P     1   10    2
   408311.1 4p *2P     1   37    2
   408324.2 4p *2P     1   11    4
   408324.2 4p *2P     1   38    4
   410336.1 4d  2D     1   12    4
   410336.1 4d  2D     1   39    4
   410340.1 4d  2D     1   13    6
   410340.1 4d  2D     1   40    6
   410434.2 4f *2F     1   14    6
   410434.2 4f *2F     1   41    6
   445368.5 5s  2S     1   15    2
   445368.5 5s  2S     1   42    2
   448855.8 5p *2P     1   43    2
   448855.8 5p *2P     1   16    2
   448862.9 5p *2P     1   44    4
   448862.9 5p *2P     1   17    4
   449888.2 5d  2D     1   45    4
   449888.2 5d  2D     1   18    4
   449889.9 5d  2D     1   46    6
   449889.9 5d  2D     1   19    6
   449939.8 5f *2F     1   47    6
   449939.8 5f *2F     1   20    6
   468784.0 6s  2S     1   48    2
   468784.0 6s  2S     1   21    2
   470775.0 6p *2P     1   49    2
   470775.0 6p *2P     1   22    2
   470778.9 6p *2P     1   50    4
   470778.9 6p *2P     1   23    4
   471370.3 6d  2D     1   51    4
   471370.3 6d  2D     1   24    4
   471371.5 6d  2D     1   52    6
   471371.5 6d  2D     1   25    6
   471403.2 6f *2F     1   53    8
   482706.0 7s  2S     1   54    2
   482706.0 7s  2S     1   26    2
   483948.4 7p *2P     1   55    2
   483948.4 7p *2P     1   27    2
   483950.8 7p *2P     1   28    4
   483950.8 7p *2P     1   56    4
   484320.6 7d  2D     1   57    4
   492477.7 8p *2P     1   58    2
   492479.3 8p *2P     1   59    4
    1   57 -6.721  2.0647E+02
    1   56 -2.245  2.0663E+02
    1   55 -2.545  2.0663E+02
    1   51 -6.444  2.1215E+02
    1   50 -2.025  2.1241E+02
    1   49 -2.325  2.1242E+02
    1   45 -6.086  2.2228E+02
    1   44 -1.753  2.2279E+02
    1   43 -2.053  2.2279E+02
    2   57 -1.883  2.3819E+02
    3   57 -1.879  2.3825E+02
    2   54 -3.137  2.3911E+02
    3   54 -3.138  2.3917E+02
    1   39 -5.578  2.4370E+02
    1   38 -1.398  2.4490E+02
    1   37 -1.698  2.4491E+02
    2   51 -1.641  2.4577E+02
    3   52 -1.682  2.4583E+02
    3   51 -2.642  2.4583E+02
    2   48 -2.896  2.4734E+02
    3   48 -2.897  2.4741E+02
    2   45 -1.337  2.5947E+02
    3   46 -1.378  2.5954E+02
    3   45 -2.338  2.5954E+02
    2   42 -2.591  2.6255E+02
    3   42 -2.592  2.6262E+02
    2   39 -0.912  2.8914E+02
    3   40 -0.953  2.8923E+02
    3   39 -1.913  2.8923E+02
    2   36 -2.167  2.9686E+02
    3   36 -2.168  2.9695E+02
    1   34 -4.744  3.0781E+02
    1   33 -0.878  3.1242E+02
    1   32 -1.178  3.1245E+02
    2   34 -0.192  3.8403E+02
    3   35 -0.233  3.8417E+02
    3   34 -1.193  3.8419E+02
    2   31 -1.437  4.1952E+02
    3   31 -1.438  4.1971E+02
    4   56 -1.953  5.5218E+02
    4   55 -2.253  5.5218E+02
    4   50 -1.699  5.9549E+02
    4   49 -1.999  5.9550E+02
    5   57 -1.543  6.0875E+02
    6   57 -1.539  6.0887E+02
    5   54 -2.521  6.1479E+02
    6   54 -2.522  6.1491E+02
    7   56 -3.999  6.2865E+02
    7   55 -3.299  6.2866E+02
    8   56 -3.215  6.2869E+02
    5   51 -1.264  6.6085E+02
    6   52 -1.305  6.6098E+02
    6   51 -2.265  6.6099E+02
    5   48 -2.227  6.7234E+02
    6   48 -2.228  6.7248E+02
    4   44 -1.364  6.8487E+02
    4   43 -1.664  6.8490E+02
    7   50 -3.696  6.8540E+02
    7   49 -2.996  6.8542E+02
    8   50 -2.912  6.8546E+02
    5   45 -0.883  7.7019E+02
    6   46 -0.924  7.7037E+02
    6   45 -1.884  7.7038E+02
    5   42 -1.813  7.9797E+02
    6   42 -1.814  7.9817E+02
    7   47 -0.806  7.9962E+02
    8   47 -0.801  7.9968E+02
    7   44 -3.273  8.0656E+02
    7   43 -2.573  8.0661E+02
    8   44 -2.489  8.0663E+02
    4   38 -0.872  9.4809E+02
    4   37 -1.172  9.4821E+02
    5   39 -0.273  1.1076E+03
    6   40 -0.314  1.1079E+03
    6   39 -1.274  1.1080E+03
    7   41  0.007  1.1688E+03
    8   41  0.012  1.1690E+03
    7   38 -2.557  1.1984E+03
    8   38 -1.773  1.1986E+03
    7   37 -1.857  1.1986E+03
    9   56 -1.656  1.2106E+03
    9   55 -1.956  1.2106E+03
    5   36 -1.094  1.2300E+03
    6   36 -1.095  1.2305E+03
   10   57 -1.233  1.3156E+03
   11   57 -1.229  1.3159E+03
   10   54 -2.023  1.3442E+03
   11   54 -2.024  1.3444E+03
   14   57 -2.867  1.3534E+03
   12   56 -3.284  1.3584E+03
   12   55 -2.584  1.3585E+03
   13   56 -2.500  1.3585E+03
    9   50 -1.332  1.4403E+03
    9   49 -1.632  1.4404E+03
    1   30 -0.724  1.5482E+03
    1   29 -1.024  1.5508E+03
   10   51 -0.871  1.5858E+03
   11   52 -0.912  1.5861E+03
   11   51 -1.872  1.5861E+03
   14   52 -2.641  1.6410E+03
   14   51 -2.822  1.6411E+03
   10   48 -1.614  1.6536E+03
   11   48 -1.615  1.6540E+03
   12   50 -2.870  1.6545E+03
   12   49 -2.170  1.6546E+03
   13   50 -2.086  1.6546E+03
    9   44 -0.849  2.1039E+03
    9   43 -1.149  2.1043E+03
   10   45 -0.294  2.4044E+03
   11   46 -0.335  2.4051E+03
   11   45 -1.295  2.4052E+03
   12   47 -0.055  2.5243E+03
   13   47  0.278  2.5245E+03
   14   46 -1.893  2.5337E+03
   14   45 -2.074  2.5338E+03
   15   56 -1.299  2.5911E+03
   15   55 -1.599  2.5912E+03
   12   44 -2.171  2.5948E+03
   13   44 -1.387  2.5951E+03
   12   43 -1.471  2.5953E+03
   10   42 -0.898  2.6977E+03
   11   42 -0.899  2.6987E+03
   16   57 -0.857  2.8189E+03
   17   57 -0.853  2.8194E+03
   20   57 -1.974  2.9077E+03
   18   56 -2.633  2.9349E+03
   19   56 -1.849  2.9351E+03
   18   55 -1.933  2.9351E+03
   16   54 -1.476  2.9533E+03
   17   54 -1.477  2.9539E+03
   15   50 -0.818  3.9343E+03
   15   49 -1.118  3.9349E+03
   16   51 -0.294  4.4403E+03
   17   52 -0.335  4.4415E+03
   17   51 -1.295  4.4417E+03
   18   53 -0.079  4.6466E+03
   19   53 -0.074  4.6470E+03
   20   52 -1.147  4.6647E+03
   20   51 -1.654  4.6649E+03
   24   59 -2.460  4.7360E+03
   25   59 -1.676  4.7363E+03
   24   58 -1.760  4.7364E+03
   18   50 -1.944  4.7855E+03
   19   50 -1.160  4.7859E+03
   18   49 -1.244  4.7864E+03
   16   48 -0.760  5.0166E+03
   17   48 -0.761  5.0184E+03
    4   33 -0.500  5.8013E+03
    4   32 -0.800  5.8120E+03
   21   56 -0.787  6.5915E+03
   21   55 -1.087  6.5926E+03
   22   57 -0.281  7.3804E+03
   23   57 -0.277  7.3826E+03
   24   56 -1.786  7.9466E+03
   25   56 -1.002  7.9474E+03
   24   55 -1.086  7.9481E+03
   22   54 -0.654  8.3792E+03
   23   54 -0.655  8.3820E+03
    9   38 -0.360  1.4331E+04
    9   37 -0.660  1.4358E+04
    5   34 -1.207  2.0700E+04
    6   35 -1.248  2.0790E+04
    6   34 -2.208  2.0836E+04
   15   44 -0.258  2.8609E+04
   15   43 -0.558  2.8668E+04
   10   39 -0.956  4.9369E+04
   11   40 -0.997  4.9592E+04
   11   39 -1.957  4.9691E+04
   21   50 -0.178  5.0114E+04
   21   49 -0.478  5.0212E+04
   26   56 -0.108  8.0312E+04
   26   55 -0.408  8.0467E+04
   16   45 -0.813  9.6835E+04
   17   46 -0.854  9.7344E+04
   17   45 -1.814  9.7506E+04
   22   51 -0.713  1.6794E+05
   23   52 -0.754  1.6870E+05
   23   51 -1.714  1.6904E+05
   27   57 -0.635  2.6860E+05
   28   57 -0.631  2.7034E+05
