 gf0201                                                                          
 gf-cutoff: N/A,  ionization potential (Ky):   438908.000    
 compr thres: 0.0000
          92         463  number of levels and lines
        0.0 AVERAGE    2    1    4
   329179.3 2P 2P      1    2    2
   329179.8 2S 2S      1    3    2
   329182.3 ENERGIES   1   10    4
   329182.3            2    4   12
   329185.1 2P 2P      1    5    4
   390140.8 3P 2P  16  1   11    2
   390140.9 3S 2S  16  1   12    2
   390142.3 ENERGIES   1   13    4
   390142.3 AVERAGE    2    6   24
   390142.5 3P 2P  16  2   14    8
   390143.1 3D 2D  16  1   15    6
   411477.9            2    7   40
   411477.9 ENERGIES   1   16    8
   421353.1 ENERGIES   1   17   10
   421353.1            2    8   60
   426717.4            2    9  110
   426717.4 ENERGIES   1   18   12
   429951.9 ENERGIES   1   19   12
   432051.2 ENERGIES   1   20   14
   433490.5 ENERGIES   1   21   14
   434520.0 ENERGIES   1   22   14
   435281.7 ENERGIES   1   23   14
   435861.0 ENERGIES   1   24   14
   436311.9 ENERGIES   1   25   14
   436669.6 ENERGIES   1   26   14
   436958.2 ENERGIES   1   27   14
   437194.4 ENERGIES   1   28   14
   437390.2 ENERGIES   1   29   14
   437554.3 ENERGIES   1   30   14
   437693.1 ENERGIES   1   31   14
   437811.6 ENERGIES   1   32   14
   437913.6 ENERGIES   1   33   14
   438002.1 ENERGIES   1   34   14
   438079.2 ENERGIES   1   35   14
   438146.9 ENERGIES   1   36   14
   438206.6 ENERGIES   1   37   14
   438259.6 ENERGIES   1   38   14
   438306.8 ENERGIES   1   39   14
   438349.0 ENERGIES   1   40   14
   438387.0 ENERGIES   1   41   14
   438421.2 ENERGIES   1   42   14
   438452.2 ENERGIES   1   43   14
   438480.3 ENERGIES   1   44   14
   438505.8 ENERGIES   1   45   14
   438529.2 ENERGIES   1   46   14
   438550.6 ENERGIES   1   47   14
   438570.2 ENERGIES   1   48   14
   438588.3 ENERGIES   1   49   14
   438604.9 ENERGIES   1   50   14
   438620.3 ENERGIES   1   51   14
   438634.5 ENERGIES   1   52   14
   438647.8 ENERGIES   1   53   14
   438660.0 ENERGIES   1   54   14
   438671.5 ENERGIES   1   55   14
   438682.2 ENERGIES   1   56   14
   438692.1 ENERGIES   1   57   14
   438701.4 ENERGIES   1   58   14
   438710.2 ENERGIES   1   59   14
   438718.3 ENERGIES   1   60   14
   438726.1 ENERGIES   1   61   14
   438733.3 ENERGIES   1   62   14
   438740.1 ENERGIES   1   63   14
   438746.5 ENERGIES   1   64   14
   438752.6 ENERGIES   1   65   14
   438758.3 ENERGIES   1   66   14
   438763.8 ENERGIES   1   67   14
   438768.9 ENERGIES   1   68   14
   438773.8 ENERGIES   1   69   14
   438778.4 ENERGIES   1   70   14
   438782.8 ENERGIES   1   71   14
   438786.9 ENERGIES   1   72   14
   438790.9 ENERGIES   1   73   14
   438794.7 ENERGIES   1   74   14
   438798.3 ENERGIES   1   75   14
   438801.7 ENERGIES   1   76   14
   438805.0 ENERGIES   1   77   14
   438808.1 ENERGIES   1   78   14
   438811.1 ENERGIES   1   79   14
   438813.9 ENERGIES   1   80   14
   438816.7 ENERGIES   1   81   14
   438819.3 ENERGIES   1   82   14
   438821.8 ENERGIES   1   83   14
   438824.2 ENERGIES   1   84   14
   438826.5 ENERGIES   1   85   14
   438828.7 ENERGIES   1   86   14
   438830.8 ENERGIES   1   87   14
   438832.8 ENERGIES   1   88   14
   438834.8 ENERGIES   1   89   14
   438836.7 ENERGIES   1   90   14
   438838.5 ENERGIES   1   91   14
   438840.3 ENERGIES   1   92   14
    1   92 -5.817  2.2787E+02
    1   91 -5.801  2.2787E+02
    1   90 -5.784  2.2788E+02
    1   89 -5.767  2.2788E+02
    1   88 -5.750  2.2788E+02
    1   87 -5.733  2.2788E+02
    1   86 -5.716  2.2788E+02
    1   85 -5.698  2.2788E+02
    1   84 -5.680  2.2788E+02
    1   83 -5.662  2.2788E+02
    1   82 -5.643  2.2788E+02
    1   81 -5.625  2.2789E+02
    1   80 -5.605  2.2789E+02
    1   79 -5.586  2.2789E+02
    1   78 -5.567  2.2789E+02
    1   77 -5.547  2.2789E+02
    1   76 -5.526  2.2789E+02
    1   75 -5.506  2.2789E+02
    1   74 -5.485  2.2790E+02
    1   73 -5.464  2.2790E+02
    1   72 -5.442  2.2790E+02
    1   71 -5.420  2.2790E+02
    1   70 -5.398  2.2790E+02
    1   69 -5.375  2.2791E+02
    1   68 -5.352  2.2791E+02
    1   67 -5.329  2.2791E+02
    1   66 -5.305  2.2792E+02
    1   65 -5.281  2.2792E+02
    1   64 -5.256  2.2792E+02
    1   63 -5.230  2.2792E+02
    1   62 -5.205  2.2793E+02
    1   61 -5.178  2.2793E+02
    1   60 -5.151  2.2794E+02
    1   59 -5.124  2.2794E+02
    1   58 -5.096  2.2795E+02
    1   57 -5.067  2.2795E+02
    1   56 -5.038  2.2796E+02
    1   55 -5.008  2.2796E+02
    1   54 -4.977  2.2797E+02
    1   53 -4.946  2.2797E+02
    1   52 -4.914  2.2798E+02
    1   51 -4.881  2.2799E+02
    1   50 -4.847  2.2800E+02
    1   49 -4.812  2.2800E+02
    1   48 -4.776  2.2801E+02
    1   47 -4.739  2.2802E+02
    1   46 -4.702  2.2803E+02
    1   45 -4.663  2.2805E+02
    1   44 -4.622  2.2806E+02
    1   43 -4.581  2.2808E+02
    1   42 -4.538  2.2809E+02
    1   41 -4.494  2.2811E+02
    1   40 -4.448  2.2813E+02
    1   39 -4.401  2.2815E+02
    1   38 -4.351  2.2817E+02
    1   37 -4.300  2.2820E+02
    1   36 -4.247  2.2823E+02
    1   35 -4.191  2.2827E+02
    1   34 -4.133  2.2831E+02
    1   33 -4.072  2.2836E+02
    1   32 -4.008  2.2841E+02
    1   31 -3.941  2.2847E+02
    1   30 -3.870  2.2854E+02
    1   29 -3.795  2.2863E+02
    1   28 -3.715  2.2873E+02
    1   27 -3.631  2.2885E+02
    1   26 -3.540  2.2901E+02
    1   25 -3.442  2.2919E+02
    1   24 -3.337  2.2943E+02
    1   23 -3.222  2.2974E+02
    1   22 -3.095  2.3014E+02
    1   21 -2.955  2.3069E+02
    1   20 -2.798  2.3145E+02
    1   19 -2.618  2.3258E+02
    1   18 -2.409  2.3435E+02
    1   17 -2.157  2.3733E+02
    1   16 -1.839  2.4303E+02
    1   13 -1.403  2.5632E+02
    1   10 -0.682  3.0378E+02
    4   92 -5.351  9.1193E+02
    4   91 -5.335  9.1194E+02
    4   90 -5.318  9.1196E+02
    4   89 -5.301  9.1197E+02
    4   88 -5.284  9.1199E+02
    4   87 -5.267  9.1201E+02
    4   86 -5.249  9.1202E+02
    4   85 -5.231  9.1204E+02
    4   84 -5.213  9.1206E+02
    4   83 -5.195  9.1208E+02
    4   82 -5.177  9.1210E+02
    4   81 -5.158  9.1212E+02
    4   80 -5.139  9.1215E+02
    4   79 -5.120  9.1217E+02
    4   78 -5.100  9.1219E+02
    4   77 -5.080  9.1222E+02
    4   76 -5.060  9.1225E+02
    4   75 -5.039  9.1228E+02
    4   74 -5.018  9.1231E+02
    4   73 -4.997  9.1234E+02
    4   72 -4.975  9.1237E+02
    4   71 -4.954  9.1241E+02
    4   70 -4.931  9.1244E+02
    4   69 -4.908  9.1248E+02
    4   68 -4.885  9.1252E+02
    4   67 -4.862  9.1256E+02
    4   66 -4.838  9.1261E+02
    4   65 -4.813  9.1266E+02
    4   64 -4.789  9.1271E+02
    4   63 -4.763  9.1276E+02
    4   62 -4.737  9.1282E+02
    4   61 -4.711  9.1288E+02
    4   60 -4.684  9.1294E+02
    4   59 -4.656  9.1301E+02
    4   58 -4.628  9.1308E+02
    4   57 -4.600  9.1316E+02
    4   56 -4.570  9.1324E+02
    4   55 -4.540  9.1333E+02
    4   54 -4.509  9.1343E+02
    4   53 -4.478  9.1353E+02
    4   52 -4.445  9.1364E+02
    4   51 -4.412  9.1376E+02
    4   50 -4.378  9.1389E+02
    4   49 -4.343  9.1403E+02
    4   48 -4.307  9.1418E+02
    4   47 -4.270  9.1434E+02
    4   46 -4.232  9.1452E+02
    4   45 -4.193  9.1472E+02
    4   44 -4.153  9.1493E+02
    4   43 -4.111  9.1517E+02
    4   42 -4.068  9.1543E+02
    4   41 -4.023  9.1571E+02
    4   40 -3.977  9.1603E+02
    4   39 -3.929  9.1638E+02
    4   38 -3.880  9.1678E+02
    4   37 -3.828  9.1723E+02
    4   36 -3.774  9.1773E+02
    4   35 -3.718  9.1830E+02
    4   34 -3.659  9.1895E+02
    4   33 -3.597  9.1970E+02
    4   32 -3.532  9.2056E+02
    4   31 -3.464  9.2157E+02
    4   30 -3.392  9.2275E+02
    4   29 -3.316  9.2415E+02
    4   28 -3.234  9.2582E+02
    4   27 -3.147  9.2785E+02
    4   26 -3.054  9.3034E+02
    4   25 -2.953  9.3345E+02
    4   24 -2.843  9.3739E+02
    4   23 -2.723  9.4251E+02
    4   22 -2.590  9.4933E+02
    4   21 -2.441  9.5870E+02
    4   20 -2.271  9.7211E+02
    4   19 -2.072  9.9236E+02
    4   18 -1.832  1.0253E+03
    4   17 -1.526  1.0849E+03
    4   16 -1.099  1.2151E+03
    2   14 -0.157  1.6403E+03
    3   14 -0.538  1.6403E+03
    2   12 -1.867  1.6404E+03
    3   11 -0.839  1.6404E+03
    5   15 -0.203  1.6405E+03
    5   14 -1.157  1.6405E+03
    5   12 -1.867  1.6405E+03
    6   91 -5.092  2.0529E+03
    6   90 -5.075  2.0530E+03
    6   89 -5.059  2.0530E+03
    6   88 -5.041  2.0531E+03
    6   87 -5.024  2.0532E+03
    6   86 -5.007  2.0533E+03
    6   85 -4.989  2.0534E+03
    6   84 -4.971  2.0535E+03
    6   83 -4.953  2.0536E+03
    6   82 -4.934  2.0537E+03
    6   81 -4.915  2.0538E+03
    6   80 -4.896  2.0539E+03
    6   79 -4.877  2.0541E+03
    6   78 -4.857  2.0542E+03
    6   77 -4.837  2.0543E+03
    6   76 -4.817  2.0544E+03
    6   75 -4.796  2.0546E+03
    6   74 -4.775  2.0547E+03
    6   73 -4.754  2.0549E+03
    6   72 -4.732  2.0551E+03
    6   71 -4.710  2.0552E+03
    6   70 -4.688  2.0554E+03
    6   69 -4.665  2.0556E+03
    6   68 -4.642  2.0558E+03
    6   67 -4.618  2.0561E+03
    6   66 -4.594  2.0563E+03
    6   65 -4.570  2.0565E+03
    6   64 -4.545  2.0568E+03
    6   63 -4.519  2.0571E+03
    6   62 -4.493  2.0573E+03
    6   61 -4.467  2.0576E+03
    6   60 -4.440  2.0580E+03
    6   59 -4.412  2.0583E+03
    6   58 -4.384  2.0587E+03
    6   57 -4.355  2.0591E+03
    6   56 -4.325  2.0595E+03
    6   55 -4.295  2.0600E+03
    6   54 -4.264  2.0604E+03
    6   53 -4.232  2.0610E+03
    6   52 -4.200  2.0615E+03
    6   51 -4.167  2.0621E+03
    6   50 -4.132  2.0628E+03
    6   49 -4.097  2.0635E+03
    6   48 -4.061  2.0643E+03
    6   47 -4.024  2.0651E+03
    6   46 -3.985  2.0660E+03
    6   45 -3.946  2.0670E+03
    6   44 -3.905  2.0681E+03
    6   43 -3.863  2.0693E+03
    6   42 -3.819  2.0706E+03
    6   41 -3.774  2.0721E+03
    6   40 -3.728  2.0737E+03
    6   39 -3.679  2.0756E+03
    6   38 -3.629  2.0776E+03
    6   37 -3.576  2.0799E+03
    6   36 -3.521  2.0825E+03
    6   35 -3.464  2.0854E+03
    6   34 -3.404  2.0888E+03
    6   33 -3.341  2.0926E+03
    6   32 -3.275  2.0971E+03
    6   31 -3.204  2.1024E+03
    6   30 -3.130  2.1085E+03
    6   29 -3.051  2.1158E+03
    6   28 -2.967  2.1246E+03
    6   27 -2.876  2.1354E+03
    6   26 -2.778  2.1486E+03
    6   25 -2.672  2.1653E+03
    6   24 -2.555  2.1866E+03
    6   23 -2.426  2.2147E+03
    6   22 -2.281  2.2527E+03
    6   21 -2.115  2.3062E+03
    6   20 -1.920  2.3854E+03
    6   19 -1.683  2.5112E+03
    6   18 -1.378  2.7333E+03
    6   17 -0.947  3.2031E+03
    7   92 -4.947  3.6536E+03
    7   91 -4.931  3.6538E+03
    7   90 -4.914  3.6541E+03
    7   89 -4.897  3.6543E+03
    7   88 -4.880  3.6546E+03
    7   87 -4.863  3.6549E+03
    7   86 -4.845  3.6552E+03
    7   85 -4.827  3.6555E+03
    7   84 -4.809  3.6558E+03
    7   83 -4.791  3.6561E+03
    7   82 -4.772  3.6564E+03
    7   81 -4.753  3.6568E+03
    7   80 -4.734  3.6571E+03
    7   79 -4.715  3.6575E+03
    7   78 -4.695  3.6579E+03
    7   77 -4.675  3.6583E+03
    7   76 -4.655  3.6588E+03
    7   75 -4.634  3.6592E+03
    7   74 -4.613  3.6597E+03
    7   73 -4.591  3.6602E+03
    7   72 -4.570  3.6608E+03
    7   71 -4.548  3.6613E+03
    7   70 -4.525  3.6619E+03
    7   69 -4.502  3.6625E+03
    7   68 -4.479  3.6632E+03
    7   67 -4.455  3.6639E+03
    7   66 -4.431  3.6646E+03
    7   65 -4.406  3.6654E+03
    7   64 -4.381  3.6662E+03
    7   63 -4.356  3.6670E+03
    7   62 -4.330  3.6680E+03
    7   61 -4.303  3.6689E+03
    7   60 -4.276  3.6700E+03
    7   59 -4.248  3.6711E+03
    7   58 -4.219  3.6722E+03
    7   57 -4.190  3.6735E+03
    7   56 -4.161  3.6749E+03
    7   55 -4.130  3.6763E+03
    7   54 -4.099  3.6778E+03
    7   53 -4.067  3.6795E+03
    7   52 -4.034  3.6813E+03
    7   51 -4.000  3.6832E+03
    7   50 -3.966  3.6853E+03
    7   49 -3.930  3.6876E+03
    7   48 -3.894  3.6900E+03
    7   47 -3.856  3.6927E+03
    7   46 -3.817  3.6956E+03
    7   45 -3.777  3.6988E+03
    7   44 -3.736  3.7023E+03
    7   43 -3.693  3.7062E+03
    7   42 -3.649  3.7104E+03
    7   41 -3.603  3.7152E+03
    7   40 -3.556  3.7204E+03
    7   39 -3.506  3.7263E+03
    7   38 -3.455  3.7328E+03
    7   37 -3.401  3.7402E+03
    7   36 -3.345  3.7486E+03
    7   35 -3.286  3.7582E+03
    7   34 -3.225  3.7691E+03
    7   33 -3.160  3.7817E+03
    7   32 -3.091  3.7963E+03
    7   31 -3.018  3.8135E+03
    7   30 -2.941  3.8338E+03
    7   29 -2.858  3.8581E+03
    7   28 -2.769  3.8874E+03
    7   27 -2.673  3.9235E+03
    7   26 -2.568  3.9684E+03
    7   25 -2.454  4.0256E+03
    7   24 -2.327  4.1000E+03
    7   23 -2.184  4.1998E+03
    7   22 -2.019  4.3387E+03
    7   21 -1.825  4.5416E+03
    6   16 -0.199  4.6857E+03
    7   20 -1.588  4.8593E+03
    7   19 -1.281  5.4115E+03
    8   92 -4.826  5.7169E+03
    8   91 -4.810  5.7175E+03
    8   90 -4.793  5.7181E+03
    8   89 -4.776  5.7187E+03
    8   88 -4.759  5.7193E+03
    8   87 -4.741  5.7200E+03
    8   86 -4.724  5.7207E+03
    8   85 -4.706  5.7214E+03
    8   84 -4.688  5.7222E+03
    8   83 -4.669  5.7230E+03
    8   82 -4.651  5.7238E+03
    8   81 -4.632  5.7246E+03
    8   80 -4.613  5.7255E+03
    8   79 -4.593  5.7265E+03
    8   78 -4.573  5.7274E+03
    8   77 -4.553  5.7285E+03
    8   76 -4.533  5.7295E+03
    8   75 -4.512  5.7307E+03
    8   74 -4.491  5.7319E+03
    8   73 -4.469  5.7331E+03
    8   72 -4.447  5.7344E+03
    8   71 -4.425  5.7358E+03
    8   70 -4.403  5.7372E+03
    8   69 -4.380  5.7387E+03
    8   68 -4.356  5.7403E+03
    8   67 -4.332  5.7420E+03
    8   66 -4.308  5.7438E+03
    8   65 -4.283  5.7457E+03
    8   64 -4.258  5.7477E+03
    8   63 -4.232  5.7498E+03
    8   62 -4.206  5.7521E+03
    8   61 -4.179  5.7545E+03
    8   60 -4.152  5.7570E+03
    8   59 -4.124  5.7598E+03
    8   58 -4.095  5.7627E+03
    8   57 -4.066  5.7658E+03
    8   56 -4.036  5.7691E+03
    8   55 -4.005  5.7726E+03
    8   54 -3.973  5.7764E+03
    8   53 -3.941  5.7805E+03
    8   52 -3.908  5.7850E+03
    8   51 -3.874  5.7897E+03
    8   50 -3.839  5.7949E+03
    8   49 -3.803  5.8005E+03
    8   48 -3.766  5.8066E+03
    8   47 -3.727  5.8132E+03
    8   46 -3.688  5.8204E+03
    8   45 -3.647  5.8284E+03
    8   44 -3.605  5.8371E+03
    8   43 -3.562  5.8467E+03
    8   42 -3.517  5.8573E+03
    8   41 -3.470  5.8690E+03
    8   40 -3.421  5.8821E+03
    8   39 -3.371  5.8968E+03
    8   38 -3.318  5.9133E+03
    8   37 -3.263  5.9318E+03
    8   36 -3.205  5.9529E+03
    8   35 -3.144  5.9770E+03
    8   34 -3.080  6.0047E+03
    8   33 -3.013  6.0368E+03
    8   32 -2.941  6.0742E+03
    8   31 -2.865  6.1183E+03
    8   30 -2.783  6.1707E+03
    8   29 -2.696  6.2338E+03
    8   28 -2.601  6.3109E+03
    8   27 -2.497  6.4064E+03
    8   26 -2.384  6.5271E+03
    7   18 -0.843  6.5601E+03
    8   25 -2.257  6.6832E+03
    8   24 -2.115  6.8909E+03
    8   23 -1.951  7.1775E+03
    8   22 -1.756  7.5928E+03
    8   21 -1.517  8.2368E+03
    9   92 -4.847  8.2466E+03
    9   91 -4.830  8.2478E+03
    9   90 -4.813  8.2490E+03
    9   89 -4.796  8.2503E+03
    9   88 -4.779  8.2517E+03
    9   87 -4.762  8.2531E+03
    9   86 -4.744  8.2545E+03
    9   85 -4.726  8.2560E+03
    9   84 -4.708  8.2576E+03
    9   83 -4.689  8.2592E+03
    9   82 -4.670  8.2609E+03
    9   81 -4.651  8.2627E+03
    9   80 -4.632  8.2646E+03
    9   79 -4.612  8.2665E+03
    9   78 -4.593  8.2686E+03
    9   77 -4.572  8.2707E+03
    9   76 -4.552  8.2729E+03
    9   75 -4.531  8.2753E+03
    9   74 -4.510  8.2778E+03
    9   73 -4.488  8.2803E+03
    9   72 -4.466  8.2831E+03
    9   71 -4.444  8.2859E+03
    9   70 -4.421  8.2889E+03
    9   69 -4.398  8.2921E+03
    9   68 -4.374  8.2954E+03
    9   67 -4.350  8.2990E+03
    9   66 -4.326  8.3027E+03
    9   65 -4.301  8.3067E+03
    9   64 -4.275  8.3109E+03
    9   63 -4.249  8.3153E+03
    9   62 -4.223  8.3200E+03
    9   61 -4.196  8.3250E+03
    9   60 -4.168  8.3304E+03
    9   59 -4.140  8.3361E+03
    9   58 -4.111  8.3421E+03
    9   57 -4.081  8.3487E+03
    9   56 -4.051  8.3556E+03
    9   55 -4.019  8.3631E+03
    9   54 -3.988  8.3711E+03
    9   53 -3.955  8.3797E+03
    9   52 -3.921  8.3890E+03
    9   51 -3.887  8.3990E+03
    9   50 -3.851  8.4099E+03
    9   49 -3.815  8.4217E+03
    9   48 -3.777  8.4345E+03
    9   47 -3.738  8.4485E+03
    9   46 -3.698  8.4638E+03
    9   45 -3.656  8.4806E+03
    9   44 -3.614  8.4990E+03
    9   43 -3.569  8.5194E+03
    9   42 -3.523  8.5419E+03
    9   41 -3.475  8.5670E+03
    9   40 -3.425  8.5949E+03
    9   39 -3.373  8.6262E+03
    9   38 -3.318  8.6615E+03
    9   37 -3.261  8.7014E+03
    9   36 -3.201  8.7469E+03
    9   35 -3.138  8.7990E+03
    9   34 -3.071  8.8592E+03
    9   33 -3.000  8.9291E+03
    9   32 -2.925  9.0112E+03
    9   31 -2.844  9.1086E+03
    9   30 -2.757  9.2253E+03
    8   20 -1.207  9.3449E+03
    9   29 -2.663  9.3671E+03
    9   28 -2.560  9.5421E+03
    9   27 -2.447  9.7622E+03
    9   26 -2.321  1.0045E+04
    7   17 -0.081  1.0124E+04
    9   25 -2.178  1.0420E+04
    9   24 -2.014  1.0934E+04
    8   19 -0.763  1.1626E+04
    9   23 -1.818  1.1673E+04
    9   22 -1.578  1.2813E+04
    9   21 -1.264  1.4760E+04
    8   18  0.011  1.8637E+04
    9   20 -0.814  1.8743E+04
